TimeStamp,Delta_TP9,Delta_AF7,Delta_AF8,Delta_TP10,Theta_TP9,Theta_AF7,Theta_AF8,Theta_TP10,Alpha_TP9,Alpha_AF7,Alpha_AF8,Alpha_TP10,Beta_TP9,Beta_AF7,Beta_AF8,Beta_TP10,Gamma_TP9,Gamma_AF7,Gamma_AF8,Gamma_TP10,RAW_TP9,RAW_AF7,RAW_AF8,RAW_TP10,AUX_RIGHT,Accelerometer_X,Accelerometer_Y,Accelerometer_Z,Gyro_X,Gyro_Y,Gyro_Z,PPG_Ambient,PPG_IR,PPG_Red,Heart_Rate,HeadBandOn,HSI_TP9,HSI_AF7,HSI_AF8,HSI_TP10,Battery,Elements
2568-11-14 13:16:27.554,,,,,,,,,,,,,,,,,,,,,,,,,,,,,,,,,,,,,,,,,,/muse/event/connected Muse-2184
2568-11-14 13:16:27.603,,,,,,,,,,,,,,,,,,,,,,,,,,,,,,,,,,,,,,,,,,/muse/elements/blink
2568-11-14 13:16:27.738,,,,,,,,,,,,,,,,,,,,,,,,,,,,,,,,,,,,,,,,,,/muse/elements/blink
2568-11-14 13:16:28.564,1.321460407969788,0.2125858391590445,0,0.5729822651834386,1.258644606534656,-0.05448615975945899,0,0.5688479559764101,1.085827293405825,0.5153858371245825,0,0.9705013158598749,0.4769881304268972,0.1900620397016226,0,0.6147408907451026,0.2951449307587022,-0.2613055454848245,0,0.1855744693779618,722.4542124542124,805.4578754578755,1004.505494505495,1039.96336996337,958.974358974359,0.114929,0.062378,0.996704,0.059814,-1.809387,0.014954,618901.098901,114071208.791209,54766300.366300,79.201218,1,1,1,1,1,75.000000
2568-11-14 13:16:28.874,,,,,,,,,,,,,,,,,,,,,,,,,,,,,,,,,,,,,,,,,,/muse/elements/blink
2568-11-14 13:16:29.569,0.9762223373813896,0.2506654344061352,0,1.160084737772307,0.5422011001407612,-0.06833520702370735,0,0.4018281374002404,0.7631068179265204,0.3513988097240018,0,0.9518040854575243,0.5253338712373619,0.0435124760136043,0,0.527539144585614,0.4147644737479727,-0.2996021192888903,0,0.378978629392971,1217.252747252747,789.3406593406594,834.8717948717949,746.2271062271062,835.2747252747253,0.117371,0.062805,0.996521,0.134583,-1.958923,-0.800018,558461.538462,114138095.238095,54788058.608059,79.669868,1,1,1,1,1,75.000000
2568-11-14 13:16:29.862,,,,,,,,,,,,,,,,,,,,,,,,,,,,,,,,,,,,,,,,,,/muse/elements/blink
2568-11-14 13:16:30.555,1.333492300559516,0.3494788623141736,0,1.284747775934541,0.7639496402175241,0.1523001314217343,0,0.4069918036560943,0.7942515875438441,0.5604274182970718,0,0.9208029396487533,0.5628047262630402,0.3698921628716105,0,0.4966926889188312,0.6127950364979625,0.04663123758911123,0,0.3681565801435934,822.3809523809524,804.6520146520147,699.8901098901099,586.2637362637363,313.4798534798535,0.118774,0.065552,0.991211,-0.112152,-2.317810,0.725250,538315.018315,114124395.604396,54830769.230769,81.021637,1,1,1,1,1,75.000000
2568-11-14 13:16:31.170,,,,,,,,,,,,,,,,,,,,,,,,,,,,,,,,,,,,,,,,,,/muse/elements/blink
2568-11-14 13:16:31.561,1.282421464752568,0.6898234924371512,0,0.7142232182415396,1.119474363793221,0.3742453482454612,0,0.9895918674674863,1.231103651241482,0.623206482670408,0,1.28237620535774,1.13689224114919,0.5427473756735973,0,0.7217201705194443,0.55033348505447,0.1181667977463689,0,0.3802879133665782,594.3223443223443,794.981684981685,915.4578754578755,859.047619047619,502.8571428571429,0.113098,0.068970,0.996033,0.029907,-1.899109,0.829926,544761.904762,113927765.567766,54899267.399267,81.247086,1,1,1,1,1,75.000000
2568-11-14 13:16:32.309,,,,,,,,,,,,,,,,,,,,,,,,,,,,,,,,,,,,,,,,,,/muse/elements/blink
2568-11-14 13:16:32.572,1.033465471117132,0.9189768727717244,0,0.9477742378260957,1.051269966873344,0.5789035934232523,0,0.9590929747159256,1.260878055629695,0.6032656480713662,0,1.227942096034347,1.050760964766634,0.2653904768548492,0,0.5079795340809884,0.5344772833733817,-0.03704855836537554,0,0.2161281837751491,963.4065934065934,807.8754578754579,835.6776556776557,716.4102564102565,544.7619047619048,0.110291,0.072998,0.993042,-0.112152,-2.071075,-0.142059,543150.183150,113872161.172161,55408571.428571,81.534973,1,1,1,1,1,75.000000
2568-11-14 13:16:33.525,,,,,,,,,,,,,,,,,,,,,,,,,,,,,,,,,,,,,,,,,,/muse/elements/blink
2568-11-14 13:16:33.555,1.053168127835355,0.760718854999187,0,1.112888602205873,1.00381924163368,0.4362899887525644,0,0.9974333315759956,1.042111207918081,0.537351942762585,0,1.091989324890027,0.7476131996356227,0.2437010840173905,0,0.4798113899203901,0.6399798748059915,-0.1346329218138338,0,0.2831990313035747,298.5714285714286,805.4578754578755,734.1391941391942,672.4908424908425,444.0293040293041,0.112854,0.073608,1.000549,0.732727,-1.839294,-0.299072,540732.600733,113924542.124542,55755897.435897,81.017982,1,1,1,1,1,75.000000
2568-11-14 13:16:34.565,0.7400783481739296,0.8840585787633685,0,1.005357264524211,0.3511225881327834,0.530455029929774,0,0.1713728992130865,1.020911868285899,0.5690666882818866,0,0.6611974361485398,0.8558478955923595,0.1808795906775706,0,0.6217098086782606,0.7805642857502282,-0.2587609425665731,0,0.2742624878162843,613.6630036630037,799.4139194139194,945.6776556776557,879.5970695970697,738.1684981684982,0.109619,0.071106,0.995544,0.104675,-1.809387,-0.396271,545567.765568,113873772.893773,55511721.611722,80.188301,1,1,1,1,1,75.000000
2568-11-14 13:16:34.833,,,,,,,,,,,,,,,,,,,,,,,,,,,,,,,,,,,,,,,,,,/muse/elements/blink
2568-11-14 13:16:35.556,0.8094393305174408,0.8822577748677015,0,1.041333870385019,0.9730717559080561,0.5005159655382311,0,0.5465313733648962,0.8486359414636975,0.5481221240437606,0,0.9196164322834247,1.017520807918786,0.0745602904737817,0,0.6088169288705267,0.9353297268309739,-0.2527472675303646,0,0.2972491340652774,707.948717948718,795.3846153846154,844.1391941391942,717.2161172161173,626.5567765567765,0.103394,0.072205,0.993530,-0.164490,-1.585083,0.426178,542344.322344,113926959.706960,55600366.300366,79.488136,1,1,1,1,1,75.000000
2568-11-14 13:16:36.062,,,,,,,,,,,,,,,,,,,,,,,,,,,,,,,,,,,,,,,,,,/muse/elements/blink
2568-11-14 13:16:36.392,,,,,,,,,,,,,,,,,,,,,,,,,,,,,,,,,,,,,,,,,,/muse/elements/jaw_clench
2568-11-14 13:16:36.555,0.7364403691178706,0.1894449948521316,0,1.041333870385019,0.9489528809067661,-0.1338023359821645,0,0.5465313733648962,0.9309043923059601,-0.05408463566775381,0,0.9196164322834247,1.085993162289518,0.1203363095534083,0,0.6088169288705267,0.9456985423878074,-0.4248607315172668,0,0.2972491340652774,275.6043956043956,795.3846153846154,723.2600732600732,720.0366300366301,507.6923076923077,0.109192,0.072998,0.988342,0.441132,-1.540222,-0.613098,546373.626374,114121978.021978,55658388.278388,80.181320,1,1,1,1,1,75.000000
2568-11-14 13:16:37.272,,,,,,,,,,,,,,,,,,,,,,,,,,,,,,,,,,,,,,,,,,/muse/elements/blink
2568-11-14 13:16:37.566,0.7745149452222463,0.1015653739888272,0,1.283820288199297,0.8181324066777657,-0.2006986621414138,0,0.784525919299994,1.013294889093777,-0.03982529979142263,0,0.9427180340932967,1.002355805748026,0.1309642219242779,0,0.837041632011249,0.7972206121207416,-0.4223144718298671,0,0.3362884968228896,1214.835164835165,799.0109890109891,906.1904761904763,832.8571428571429,901.3553113553114,0.112793,0.067932,0.988464,-0.044861,-1.824341,-0.164490,545567.765568,114028498.168498,55506080.586081,79.387520,1,1,1,1,1,75.000000
2568-11-14 13:16:38.557,0.617560139289508,0.3942945734208882,0,1.333702855144624,0.6313829319460794,-0.1009652940375962,0,0.8779882867510821,0.7290638312983977,0.3176073918157912,0,0.8811764923057225,0.6911829491271868,0.1261625381961874,0,0.8370630576800184,0.657590389136425,-0.3006257508863994,0,0.3018786339539357,494.7985347985348,795.7875457875458,767.5824175824176,642.2710622710623,769.1941391941392,0.109436,0.077576,0.994263,0.007477,-1.682281,0.179443,545567.765568,113912454.212454,55589890.109890,79.279121,1,1,1,1,1,75.000000
2568-11-14 13:16:38.630,,,,,,,,,,,,,,,,,,,,,,,,,,,,,,,,,,,,,,,,,,/muse/elements/blink
2568-11-14 13:16:39.554,0.4317671917964519,0.4654269897977069,0,1.421140246893656,0.7112516079508299,0.09879447097897341,0,1.017634333737572,1.194491609519783,0.4033818801901701,0,0.9312591719082512,0.7840340709165772,0.2104860594069789,0,0.7688287321265107,0.8147953081505942,-0.2184539017614483,0,0.2662801108409084,344.5054945054945,803.8461538461539,697.4725274725275,771.6117216117216,676.5201465201466,0.110779,0.074280,0.997375,-0.411224,-1.801910,-0.710297,546373.626374,114018827.838828,55618095.238095,79.586693,1,1,1,1,1,75.000000
2568-11-14 13:16:39.944,,,,,,,,,,,,,,,,,,,,,,,,,,,,,,,,,,,,,,,,,,/muse/elements/blink
2568-11-14 13:16:40.558,0.2756560899419688,0.1942587834962128,0,1.212470138943145,0.6562716757673844,0.1107197862398494,0,0.8879950856457427,1.228252851844426,0.2866340986217824,0,0.9067705779412096,0.7068032673159726,0.08191270920544362,0,0.6520930435716854,0.7756965100911734,-0.3690376582270821,0,0.1844853219488768,973.8827838827839,797.3992673992674,869.5238095238095,936.8131868131868,924.3223443223443,0.118164,0.070312,0.994019,-0.201874,-1.839294,0.022430,543150.183150,113867326.007326,55533479.853480,79.294197,1,1,1,1,1,75.000000
2568-11-14 13:16:41.173,,,,,,,,,,,,,,,,,,,,,,,,,,,,,,,,,,,,,,,,,,/muse/elements/blink
2568-11-14 13:16:41.561,0.8715343830335552,0.6743143332902557,0,1.139501612694606,0.6989248790513376,0.3534137855399357,0,0.7814195665545264,0.8235046725695817,0.1693751852710943,0,0.8184404265847485,0.8743296333864797,0.08805390147278393,0,0.5989721548383302,0.7747447635363433,-0.210071947294141,0,0.1224738605491748,415.4212454212454,803.4432234432235,892.0879120879121,648.7179487179487,201.0622710622711,0.117737,0.073792,0.997986,-0.433655,-1.958923,0.530853,538315.018315,113830256.410256,55502857.142857,78.762558,1,1,1,1,1,75.000000
2568-11-14 13:16:42.555,1.076037112438989,0.5790136741273563,0,1.278830010381448,0.7244896970461179,0.2484561553664782,0,0.7051207704485207,0.7748364487284221,0.2195954142505585,0,0.9092220738596478,0.5062566599156563,0.2040758129928207,0,0.5771085193528284,0.8283061947788559,-0.2145034418568865,0,0.1407218924565823,429.5238095238095,788.9377289377289,704.3223443223443,786.9230769230769,758.7179487179487,0.111328,0.073608,0.999512,-0.171967,-1.704712,-0.777588,547179.487179,113955164.835165,55406959.706960,78.762558,1,1,1,1,1,75.000000
2568-11-14 13:16:42.580,,,,,,,,,,,,,,,,,,,,,,,,,,,,,,,,,,,,,,,,,,/muse/elements/blink
2568-11-14 13:16:43.555,1.048334286611335,0.7994675177795586,0,1.013944992469023,0.7560608739774264,0.04658686960020277,0,0.7281520852274744,0.7807894336244261,0.252315443180759,0,1.092362164498133,0.5369312031250273,0.0507027994256507,0,0.5597567003250584,1.174665425321923,-0.3116404017163877,0,0.3180610441468303,936.007326007326,803.8461538461539,907.3992673992674,937.2161172161173,856.6300366300367,0.115662,0.074890,0.987305,-0.306549,-1.719666,-0.127106,543150.183150,113882637.362637,55276410.256410,78.907776,1,1,1,1,1,75.000000
2568-11-14 13:16:43.803,,,,,,,,,,,,,,,,,,,,,,,,,,,,,,,,,,,,,,,,,,/muse/elements/blink
2568-11-14 13:16:44.555,0.5164266240792542,0.5599486685204618,0,1.481890093664978,0.6541005300319428,-0.1291636473787401,0,1.086435519384829,0.6303066972108295,0.2633222208207196,0,1.18460579179131,0.5278905934485498,0.1406878997464487,0,0.726310018004098,0.9029571413137272,-0.3938631692085227,0,0.3085341836098248,538.3150183150183,806.2637362637363,862.2710622710623,692.2344322344322,506.0805860805861,0.119080,0.077148,0.993286,-0.082245,-1.607513,0.927124,539120.879121,113928571.428571,55368278.388278,79.995415,1,1,1,1,1,75.000000
2568-11-14 13:16:45.094,,,,,,,,,,,,,,,,,,,,,,,,,,,,,,,,,,,,,,,,,,/muse/elements/blink
2568-11-14 13:16:45.555,0.5714809717223932,0.2193567706440475,0,1.418523631538114,0.6413094148420488,0.2699517465453294,0,1.228896277955824,0.6815984755405813,0.3668943901892965,0,1.230114872108834,0.466114428455017,-0.01978734721067666,0,0.7263409641736175,0.7458644316384637,-0.4517883877394901,0,0.2257237211708257,856.2271062271062,792.5641025641025,756.3003663003664,855.4212454212454,865.4945054945056,0.110474,0.073730,0.999695,0.037384,-2.415009,0.194397,550402.930403,113993040.293040,55385201.465201,80.296608,1,1,1,1,1,75.000000
2568-11-14 13:16:46.555,0.4828699207012128,0.1815947479492524,0,1.120135387324704,0.7437558903809539,0.3228322406772726,0,0.888246742564177,1.117726720999352,0.4684201165905014,0,0.8224996690880162,0.5404218717225741,0.1359143582376507,0,0.6510081073127231,0.6377368705809876,-0.3801264495624338,0,0.1123809366015727,731.3186813186813,802.6373626373627,876.3736263736264,831.6483516483516,838.4981684981685,0.111877,0.072510,0.993652,-0.261688,-1.966400,-0.186920,543956.043956,113926959.706960,55193406.593407,80.245049,1,1,1,1,1,75.000000
2568-11-14 13:16:46.563,,,,,,,,,,,,,,,,,,,,,,,,,,,,,,,,,,,,,,,,,,/muse/elements/blink
2568-11-14 13:16:47.569,0.5464607964566743,0.3080659954711956,0,1.097427274154395,0.8220260660835971,0.2174422823056016,0,0.7460139279237046,1.030706308727534,0.4940315454098368,0,0.6282616578123001,0.6940151123647011,0.007960833222543802,0,0.5319458586843733,0.4088460397782447,-0.4028385596129881,0,-0.01893588380150884,478.2783882783883,809.0842490842491,863.4798534798535,702.3076923076924,371.0989010989011,0.114014,0.079102,0.994995,0.104675,-1.226196,0.336456,542344.322344,113950329.670330,55325567.765568,80.593842,1,1,1,1,1,75.000000
2568-11-14 13:16:47.775,,,,,,,,,,,,,,,,,,,,,,,,,,,,,,,,,,,,,,,,,,/muse/elements/blink
2568-11-14 13:16:48.555,0.9563484225434321,0.4661336024661331,0,0.530456442344144,1.28747252496328,0.3207336233035923,0,0.8061740507408698,1.433052961778075,0.3934493360129073,0,0.7565266441494698,1.09072661665977,0.07886421984226938,0,0.5947337220813984,0.9361172312458824,-0.468145559745095,0,0.1979687985019304,689.0109890109891,805.8608058608058,783.2967032967033,824.7985347985348,649.5238095238095,0.105042,0.070068,0.989441,-0.164490,-1.764526,-0.725250,554432.234432,114034945.054945,55451282.051282,80.260155,1,1,1,1,1,75.000000
2568-11-14 13:16:49.561,1.043424712138448,0.9703699859281949,0,0.6383423351089149,1.169543165274107,0.661466802021631,0,0.7274925689659739,1.443929544487767,0.7597856314082378,0,0.934044915062333,1.148313729953008,0.2330189113674466,0,0.5357471747021247,1.039227689387526,-0.4500704895241608,0,0.2270955380025358,1062.527472527473,803.8461538461539,862.6739926739926,760.7326007326008,731.7216117216118,0.106445,0.071045,0.990479,0.022430,-1.779480,0.246735,547985.347985,113877802.197802,55855018.315018,79.378342,1,1,1,1,1,75.000000
2568-11-14 13:16:50.295,,,,,,,,,,,,,,,,,,,,,,,,,,,,,,,,,,,,,,,,,,/muse/elements/blink
2568-11-14 13:16:50.555,0.8596588770489858,0.927155890912606,0,1.059224245027204,0.6631019555751253,0.6532038411792342,0,0.4268764079612673,1.237090337875518,0.7489830367684419,0,0.9097345182545997,0.8636327225140429,0.1979102099147125,0,0.5536806923097514,0.9764523068642302,-0.2619050275845294,0,0.2947955609858694,577.8021978021978,805.8608058608058,867.5091575091575,677.3260073260074,353.3699633699634,0.106201,0.075012,0.990967,-0.291595,-1.532745,0.284119,547179.487179,113908424.908425,56558534.798535,80.069229,1,1,1,1,1,75.000000
2568-11-14 13:16:51.560,0.4448616279902722,0.5575024112343248,0,1.397530978289866,0.7493095165109861,0.09767411776077736,0,0.592521367198532,1.026727003287696,0.3958334297423789,0,0.6901203596157218,0.6236693445704869,0.2821767012704757,0,0.5166867756152803,0.7601761801701763,-0.2743455892652242,0,0.3698322331954483,475.4578754578754,794.5787545787546,803.8461538461539,818.3516483516484,558.8644688644689,0.112915,0.076233,1.000122,0.149536,-2.332764,0.029907,546373.626374,114038974.358974,56696336.996337,80.395195,1,1,1,1,1,75.000000
2568-11-14 13:16:51.633,,,,,,,,,,,,,,,,,,,,,,,,,,,,,,,,,,,,,,,,,,/muse/elements/blink
2568-11-14 13:16:52.555,0.9658744330147112,0.8922610631462873,0,0.9283599743383866,0.8418407931309038,0.3725722932198394,0,0.4888472729282287,0.9401287870499896,0.3888153916058029,0,1.148670646196416,0.8001140884927459,0.4292389048146799,0,0.7512378153485162,0.6274195901669091,-0.1273906177011193,0,0.2905238635025131,902.967032967033,785.7142857142858,846.959706959707,861.0622710622711,958.5714285714286,0.121887,0.071411,0.990112,0.261688,-2.781372,-0.097198,536703.296703,113929377.289377,56745494.505495,80.445969,1,1,1,1,1,75.000000
2568-11-14 13:16:52.829,,,,,,,,,,,,,,,,,,,,,,,,,,,,,,,,,,,,,,,,,,/muse/elements/blink
2568-11-14 13:16:53.567,1.6984071306409,0.8740673644316945,0,1.156864839148593,1.255857585902478,0.2005052192791314,0,0.6318037123690393,0.808014832395607,0.264855318118111,0,1.06663737128901,0.8451951085721765,0.1604157162744675,0,0.7139924618294838,0.488565141482941,-0.2374261375315064,0,0.3346926290640539,483.1135531135531,790.1465201465202,894.908424908425,639.047619047619,295.7509157509157,0.110107,0.072815,0.990479,-0.321503,-1.749573,0.022430,534285.714286,113662637.362637,56169304.029304,80.628693,1,1,1,1,1,75.000000
2568-11-14 13:16:54.144,,,,,,,,,,,,,,,,,,,,,,,,,,,,,,,,,,,,,,,,,,/muse/elements/blink
2568-11-14 13:16:54.555,1.992192690793243,1.034585304479882,0,1.240727325977046,1.493761196288501,0.09457526484065314,0,0.7689287307619701,0.7965520337964757,0.1904693577858546,0,0.8847548971588221,0.8583507178185644,0.04430453863277078,0,0.5541409463777898,0.4461999618356855,-0.2951711518494894,0,0.3190017846062131,512.1245421245421,798.6080586080586,747.8388278388279,817.5457875457876,766.7765567765568,0.111145,0.069214,0.995667,-0.388794,-1.981354,-0.418701,547179.487179,113773846.153846,55857435.897436,80.630829,1,1,1,1,1,75.000000
2568-11-14 13:16:55.456,,,,,,,,,,,,,,,,,,,,,,,,,,,,,,,,,,,,,,,,,,/muse/elements/blink
2568-11-14 13:16:55.557,0.1773015650071161,0.9407759773159434,0,1.240727325977046,0.3604601170692862,0.2341846204989692,0,0.7689287307619701,0.5388998800026482,0.324090977563751,0,0.8847548971588221,0.5015620105932324,-0.05193101371945327,0,0.5541409463777898,0.4909948062362942,-0.3676899949149867,0,0.3190017846062131,919.8901098901099,797.8021978021978,920.6959706959707,726.0805860805862,415.4212454212454,0.118225,0.075684,0.999268,0.149536,-1.749573,-0.396271,538315.018315,113652161.172161,55751062.271062,84.653648,1,1,1,1,1,75.000000
2568-11-14 13:16:56.556,0.4806334689901252,-0.005781925595358392,0,0.3194910151414473,0.6621173743289853,-0.01282534659380902,0,0.4816343283598183,0.7038997139512596,0.1994094520291309,0,0.6561865692773955,0.5650147620730787,-0.118739261112906,0,0.2723764824566282,0.5549318594690127,-0.3182447327707914,0,0.07438516406435923,404.9450549450549,797.8021978021978,807.8754578754579,721.2454212454213,500.4395604395605,0.114258,0.075256,0.992554,-0.388794,-1.286011,0.829926,534285.714286,113537728.937729,55839706.959707,92.634338,1,1,1,1,1,75.000000
2568-11-14 13:16:56.689,,,,,,,,,,,,,,,,,,,,,,,,,,,,,,,,,,,,,,,,,,/muse/elements/blink
2568-11-14 13:16:57.555,0.7271253861169796,0.1091287839184211,0,0.4976512321777097,0.6611960692620533,0.1326546868794395,0,0.4768021986075026,0.9591843685992474,0.4709240751998565,0,0.7101802803140284,0.5969931846672444,0.1862125329063925,0,0.3764683606827333,0.4785504075509405,-0.2101588444905854,0,0.05884974112160411,630.5860805860806,802.6373626373627,806.6666666666667,850.1831501831502,689.8168498168499,0.114319,0.067688,0.990417,-0.209351,-1.727142,0.194397,540732.600733,113637655.677656,56167692.307692,88.201736,1,1,1,1,1,75.000000
2568-11-14 13:16:57.976,,,,,,,,,,,,,,,,,,,,,,,,,,,,,,,,,,,,,,,,,,/muse/elements/blink
2568-11-14 13:16:58.555,0.3618309574223306,0.3495018686581003,0,0.7561403134670762,0.429879183816794,0.478738931943519,0,0.5644117317989691,0.9142831625796879,0.856908705031913,0,0.7540982120664539,0.6996998502457557,0.8067466424718853,0,0.4974184430976212,0.523883523874098,0.7415111330132269,0,0.1109217828954853,1010.14652014652,802.2344322344322,827.6190476190476,847.7655677655678,747.032967032967,0.116028,0.074890,0.998230,-0.299072,-1.413116,-0.575714,535897.435897,113509523.809524,55900146.520147,86.147110,1,1,1,1,1,75.000000
2568-11-14 13:16:59.220,,,,,,,,,,,,,,,,,,,,,,,,,,,,,,,,,,,,,,,,,,/muse/elements/blink
2568-11-14 13:16:59.572,0.454358331726693,-0.16951735960772,0,0.7633364546530172,0.3546860073504758,0.3013814488697674,0,0.5469753487494121,0.904126432756635,0.8534107872143963,0,0.7540982120664539,0.7241453290264398,0.8708716613651912,0,0.5031744632432145,0.587534464203903,0.8936014348626681,0,0.1035362326265356,465.7875457875458,797.3992673992674,766.7765567765568,770.4029304029305,684.1758241758242,0.115295,0.077454,0.993958,1.024323,-1.248627,-1.383209,541538.461538,113777875.457875,55503663.003663,84.826530,1,1,1,1,1,75.000000
2568-11-14 13:17:00.454,,,,,,,,,,,,,,,,,,,,,,,,,,,,,,,,,,,,,,,,,,/muse/elements/blink
2568-11-14 13:17:00.555,0.454358331726693,0.3300380840316406,0,0.7633364546530172,0.3546860073504758,0.09970374078406884,0,0.5469753487494121,0.904126432756635,0.3472066554973576,0,0.7540982120664539,0.7241453290264398,0.1868595178951456,0,0.5031744632432145,0.587534464203903,0.1411406672150133,0,0.1035362326265356,823.1868131868132,792.967032967033,840.1098901098901,857.4358974358975,757.9120879120879,0.107239,0.082520,1.000793,0.194397,-1.502838,0.575714,541538.461538,113884249.084249,55776043.956044,83.121208,1,2,1,1,2,75.000000
2568-11-14 13:17:01.555,1.166955284996562,0.6092140278734858,0,1.0064289573755,0.6660796219782099,0.2612766449219138,0,0.2191125901736335,1.342294446506969,-0.09194155203508111,0,1.52583591914191,0.7147910837659174,0.1216890722236928,0,0.4808434970276854,0.462441687191818,-0.05143179062614856,0,-0.09696979770434892,1154.395604395604,794.5787545787546,816.3369963369963,811.0989010989011,926.3369963369963,0.114197,0.077271,0.992249,0.164490,-1.622467,-0.216827,543956.043956,113623150.183150,55668864.468864,85.151466,1,1,1,1,1,75.000000
2568-11-14 13:17:01.788,,,,,,,,,,,,,,,,,,,,,,,,,,,,,,,,,,,,,,,,,,/muse/elements/blink
2568-11-14 13:17:02.562,1.233945776339402,0.4682359190816857,0,1.21828255155564,0.8701737067296516,0.01995402354621911,0,0.4841750145834277,1.556183900543539,-0.05202319482459714,0,1.737181932115823,0.6583008344109685,-0.09663111111719662,0,0.3927487389491735,0.4872459337928864,-0.4422336855001839,0,0.04412545028296642,518.974358974359,802.6373626373627,817.948717948718,812.3076923076924,606.8131868131868,0.118530,0.081909,0.986572,0.695343,-2.302856,-0.119629,550402.930403,113622344.322344,55665641.025641,92.268463,1,1,1,1,1,75.000000
2568-11-14 13:17:03.002,,,,,,,,,,,,,,,,,,,,,,,,,,,,,,,,,,,,,,,,,,/muse/elements/blink
2568-11-14 13:17:03.555,1.190654817339262,0.5656879683942729,0,1.308348782959472,1.016191983887579,-0.02638516438242766,0,0.9659220553743068,1.495482705793776,0.2077997436610083,0,1.697025884057853,0.6046114695825924,-0.1635572697993281,0,0.4342821102485487,0.5121977380221002,-0.3556626973906593,0,0.2135704697798289,1052.857142857143,797.8021978021978,819.1575091575091,885.6410256410256,864.6886446886447,0.110779,0.078735,0.995850,0.231781,-1.682281,-0.478516,539926.739927,113600586.080586,55567326.007326,98.646683,1,1,1,1,1,75.000000
2568-11-14 13:17:04.231,,,,,,,,,,,,,,,,,,,,,,,,,,,,,,,,,,,,,,,,,,/muse/elements/blink
2568-11-14 13:17:04.555,1.219524880359563,0.5295082474096744,0,1.183742821959947,0.7574083070365731,0.001093206288489134,0,0.8068094272734603,1.443918778597051,0.2868416861287455,0,1.459392666301805,0.7160766813032908,-0.08619335994628045,0,0.6163025734541806,0.5076928190024111,-0.3825681469089589,0,0.08424970749641257,1073.003663003663,793.7728937728938,860.2564102564103,782.4908424908425,639.4505494505495,0.117493,0.078552,0.996155,0.396271,-1.869202,0.059814,552014.652015,113833479.853480,55751868.131868,98.251259,1,1,1,1,1,75.000000
2568-11-14 13:17:05.455,,,,,,,,,,,,,,,,,,,,,,,,,,,,,,,,,,,,,,,,,,/muse/elements/blink
2568-11-14 13:17:05.556,0.8459800611048821,0.2308153431470708,0,0.6950205328433429,0.9302875418962223,0.2836523162426458,0,0.7520190390626414,1.716280301005796,0.00746918366676333,0,1.719687735406958,0.8155172796594107,-0.0229746653365683,0,0.549044169219518,0.6584299455017109,-0.3158049097948892,0,0.2889788018978769,721.2454212454213,793.7728937728938,589.4871794871796,879.1941391941392,1268.827838827839,0.108887,0.070923,0.995178,-0.082245,-1.547699,0.164490,552820.512821,113914871.794872,55790549.450549,93.725113,1,1,1,1,1,75.000000
2568-11-14 13:17:06.555,0.7439993683491247,0.4753832563561171,0,0.5234249777586032,0.9111648547033862,0.2118684801741938,0,0.8496596550172856,1.674697310444025,0.1905903578614852,0,1.687995616819539,0.6598668475040373,-0.0903782080179058,0,0.3897173323250524,0.5800332682859051,-0.3656132396665387,0,0.2219029030169889,1183.003663003663,801.8315018315019,803.8461538461539,871.941391941392,899.7435897435897,0.112610,0.082886,1.001831,-0.388794,-1.689758,-0.097198,552014.652015,113915677.655678,55862271.062271,90.734566,1,1,1,1,1,75.000000
2568-11-14 13:17:06.754,,,,,,,,,,,,,,,,,,,,,,,,,,,,,,,,,,,,,,,,,,/muse/elements/blink
2568-11-14 13:17:07.555,0.7862705434427781,0.3141951341644568,0,0.6154051894749681,0.9169502019743198,0.1106398282069835,0,0.5847054755757147,1.455709084803944,0.1742940444088986,0,1.218362219783432,0.5793124239303271,-0.02232435013851963,0,0.3470962797524567,0.5118960795461822,-0.4411556036751801,0,0.09923455288447104,848.1684981684982,796.1904761904763,893.6996336996338,712.7838827838829,464.981684981685,0.109131,0.080872,0.991699,0.209351,-1.547699,-0.426178,554432.234432,113876996.336996,55926739.926740,89.989082,1,1,1,1,1,75.000000
2568-11-14 13:17:07.977,,,,,,,,,,,,,,,,,,,,,,,,,,,,,,,,,,,,,,,,,,/muse/elements/blink
2568-11-14 13:17:08.557,0.5685189154746405,-0.2569885226605394,0,0.2534713809995806,0.9747200418772399,-0.005076686425259422,0,0.5074723482806476,1.419060517976129,-0.204018276292194,0,1.503682506714496,0.720823870905513,0.01484203996136013,0,0.4962909971263943,0.5423418384474562,-0.4466499099233814,0,0.1247492435912741,974.2857142857143,792.967032967033,686.996336996337,883.6263736263736,1173.333333333333,0.109619,0.076172,0.991211,-0.089722,-2.153320,0.755157,547179.487179,113723076.923077,55859853.479853,88.893356,1,1,1,1,1,75.000000
2568-11-14 13:17:09.198,,,,,,,,,,,,,,,,,,,,,,,,,,,,,,,,,,,,,,,,,,/muse/elements/blink
2568-11-14 13:17:09.555,0.5585751737534272,-0.134381782417702,0,0.2766442684916218,0.8136000974067625,-0.1928876625161139,0,0.7283949054875494,1.580216293040933,0.3327615996048218,0,1.599157363520672,0.6531843038733676,-0.007322382006853739,0,0.5845858836760627,0.5148351526206981,-0.3806115339865663,0,0.06124378592157834,1105.238095238095,800.2197802197802,853.4065934065934,797.8021978021978,648.3150183150183,0.107849,0.083557,0.999390,-0.029907,-1.674805,-0.014954,550402.930403,113573992.673993,55779267.399267,86.177803,1,1,1,1,1,75.000000
2568-11-14 13:17:10.420,,,,,,,,,,,,,,,,,,,,,,,,,,,,,,,,,,,,,,,,,,/muse/elements/blink
2568-11-14 13:17:10.570,0.7453232153083144,-0.008827337515772435,0,0.9255021246373534,0.8667397398649465,-0.08936496562683177,0,0.7886557864688708,1.543315800994009,0.3444018330259955,0,1.567091154346401,0.6605547621950837,-0.124108000441192,0,0.5759452076710241,0.4809873543943796,-0.334117155587184,0,0.01460440862163247,628.5714285714286,796.1904761904763,866.7032967032967,830.8424908424909,643.4798534798535,0.099915,0.081299,0.995056,-0.157013,-2.033691,-0.299072,546373.626374,113582857.142857,55846153.846154,84.385529,1,1,1,1,1,75.000000
2568-11-14 13:17:11.555,0.7475826618452311,-0.07728948660555868,0,1.012857000848943,0.7465921477812465,0.09148825251773769,0,0.5509709249527696,1.216368282617665,0.2787701692637188,0,1.242347148182466,0.5900293023833905,0.00575091122862448,0,0.436898497109963,0.5419524437470323,-0.33359452043948,0,-0.05465801911041644,1118.131868131868,790.1465201465202,715.6043956043957,859.8534798534798,1064.945054945055,0.110413,0.079163,0.990417,0.396271,-2.086029,-0.493469,554432.234432,113642490.842491,55938827.838828,82.940315,1,1,1,1,1,75.000000
2568-11-14 13:17:11.735,,,,,,,,,,,,,,,,,,,,,,,,,,,,,,,,,,,,,,,,,,/muse/elements/blink
2568-11-14 13:17:12.555,0.3962157547232282,-0.03598013111296645,0,0.6192176870559003,0.6090691958340901,0.1726626649049766,0,0.4536878785135496,1.552561381808868,0.4997648793031337,0,1.499510459475186,0.6068929554421271,-0.01703274958954099,0,0.4051366840892069,0.4478357664504135,-0.4743751934912449,0,0.004514291826473844,934.7985347985348,785.3113553113553,914.2490842490843,741.7948717948718,448.4615384615385,0.113647,0.082336,0.994263,0.261688,-2.489777,0.164490,547985.347985,113599780.219780,55871941.391941,80.785706,1,1,1,1,1,75.000000
2568-11-14 13:17:12.945,,,,,,,,,,,,,,,,,,,,,,,,,,,,,,,,,,,,,,,,,,/muse/elements/blink
2568-11-14 13:17:13.555,1.002319436025256,0.3250564540421895,0,0.9095727544229539,0.7033365286347065,0.04659414551228115,0,0.4178351548422529,1.551357756960584,0.4704473150566613,0,1.496206009369337,0.6568164016570699,-0.08803630428013982,0,0.6118181260969201,0.403932737104104,-0.4820939651811739,0,0.05355702521983798,349.7435897435898,797.8021978021978,912.6373626373627,694.6520146520147,396.4835164835165,0.112000,0.079590,0.991943,0.306549,-1.226196,-0.186920,543956.043956,113646520.146520,55933992.673993,79.754478,1,1,1,1,1,75.000000
2568-11-14 13:17:14.149,,,,,,,,,,,,,,,,,,,,,,,,,,,,,,,,,,,,,,,,,,/muse/elements/blink
2568-11-14 13:17:14.555,1.352620567368508,0.627047168705352,0,1.273631254924345,0.7724974443883891,0.1552886192159116,0,0.5642228897058242,1.252114405309205,0.2492744945615842,0,1.107973402354161,0.7446500873731827,-0.007898619164364115,0,0.6557402872945773,0.5806536752957614,-0.4685348609120892,0,0.1890481570260679,1194.688644688645,796.996336996337,777.2527472527473,820.7692307692308,959.7802197802198,0.111694,0.076111,0.990967,-0.179443,-1.472931,-0.201874,547179.487179,113677948.717949,56022637.362637,78.915443,1,1,1,1,1,75.000000
2568-11-14 13:17:15.389,,,,,,,,,,,,,,,,,,,,,,,,,,,,,,,,,,,,,,,,,,/muse/elements/blink
2568-11-14 13:17:15.556,1.143233948910874,0.1429998902847107,0,0.5935376515029794,0.8757241686908823,-0.1252424615490081,0,0.6913868890550972,1.45850542590677,0.2579828481883075,0,1.614512029727874,0.7686131375627808,-0.05553075848253548,0,0.687327427300074,0.6204227458801446,-0.3555547680753358,0,0.3580780433219659,684.1758241758242,796.1904761904763,988.7912087912089,741.7948717948718,327.5824175824176,0.109436,0.081543,0.998230,0.583191,-2.272949,0.530853,543150.183150,113741611.721612,56076630.036630,77.322586,1,1,1,1,1,75.000000
2568-11-14 13:17:16.555,0.4016327654198487,0.07882040751447253,0,0.1870630556193696,0.9946823932970604,-0.08058718288778652,0,0.511556073835172,1.491408160266262,0.1297990496675825,0,1.619501615598355,0.6228186320866033,-0.03621845597539917,0,0.3413972887926091,0.473515450326182,-0.4544114340403971,0,0.1569674812084143,480.6959706959707,797.3992673992674,934.7985347985348,772.4175824175825,489.1575091575092,0.113281,0.078430,0.996216,-0.082245,-1.839294,-0.575714,546373.626374,113553040.293040,55967032.967033,76.438965,1,1,1,1,1,75.000000
2568-11-14 13:17:16.604,,,,,,,,,,,,,,,,,,,,,,,,,,,,,,,,,,,,,,,,,,/muse/elements/blink
2568-11-14 13:17:17.555,0.7264427819229873,0.4764558521356004,0,0.7133695678280296,1.046738272353929,-0.08779313408469086,0,0.67682643492741,1.595387257318496,0.07636559794761349,0,1.538545166666338,0.6442111408341775,0.09162276945565,0,0.314305284091521,0.4908734972767325,-0.512189738434713,0,0.1568790073815325,998.4615384615385,797.8021978021978,830.4395604395604,792.1611721611722,714.3956043956044,0.108765,0.078308,0.993591,-0.164490,-1.719666,0.568237,555238.095238,113445860.805861,56025054.945055,76.292542,1,1,1,1,1,75.000000
2568-11-14 13:17:17.913,,,,,,,,,,,,,,,,,,,,,,,,,,,,,,,,,,,,,,,,,,/muse/elements/blink
2568-11-14 13:17:18.565,1.086870978057238,0.6039844052386348,0,0.9004242974224496,1.537168085106696,-0.1562378412579635,0,0.8423073141111312,1.815264259896722,0.03504940651053597,0,1.382158589291196,0.9506989892621143,0.0229095520449668,0,0.6654461556280754,0.5906201991030313,-0.3269801328461799,0,0.1011311743100444,504.0659340659341,802.6373626373627,918.6813186813187,753.8827838827839,287.6923076923077,0.114624,0.079407,0.995483,0.299072,-1.742096,0.149536,550402.930403,113519194.139194,56091941.391941,76.307251,1,1,1,1,1,70.000000
2568-11-14 13:17:19.128,,,,,,,,,,,,,,,,,,,,,,,,,,,,,,,,,,,,,,,,,,/muse/elements/blink
2568-11-14 13:17:19.557,1.250030743580801,0.2088408889125293,0,0.7315738744456118,1.349861003426177,0.003401312791870343,0,0.6897905004190809,1.794064140905998,0.002562128883845182,0,1.570750452408403,1.253821395469879,-0.1142941126317622,0,0.7791076287397065,0.6295833245556965,-0.3976335734564436,0,0.007609856331719083,1165.677655677656,790.5494505494506,666.0439560439561,838.0952380952381,1293.809523809524,0.115112,0.077271,0.993225,-0.209351,-2.280426,-0.471039,556043.956044,113655384.615385,56070989.010989,76.683189,1,1,1,1,1,70.000000
2568-11-14 13:17:20.356,,,,,,,,,,,,,,,,,,,,,,,,,,,,,,,,,,,,,,,,,,/muse/elements/blink
2568-11-14 13:17:20.556,0.7801068418936979,0.2676365203137778,0,0.8074308084607179,0.7761595526801556,0.1666629933459758,0,0.7688465603158545,1.553651572981117,0.2716607181148361,0,1.627041462105132,0.8273091644854041,-0.1093091007155421,0,0.6573490575512529,0.5688979568831883,-0.5365027938716577,0,0.05803887422258143,729.7069597069598,797.3992673992674,857.4358974358975,748.6446886446887,742.6007326007326,0.110352,0.081360,0.999695,0.007477,-1.532745,-0.216827,554432.234432,113578827.838828,56066959.706960,75.953835,1,1,1,1,1,70.000000
2568-11-14 13:17:21.555,0.4180271967808817,0.2951447806626493,0,0.7653780329240497,0.767443093266681,0.0009489494144036503,0,0.5537055144624241,1.497653878323984,0.3607528614541451,0,1.492534307160476,0.6780157276247433,-0.09456736521844722,0,0.5123587826563468,0.5146429070254216,-0.4557006243826764,0,-0.1032566953585434,390.8424908424909,792.967032967033,952.9304029304029,747.4358974358975,280.4395604395605,0.108521,0.079224,0.993103,-0.284119,-1.532745,-0.000000,556043.956044,113536923.076923,56052454.212454,75.895432,1,1,1,1,1,70.000000
2568-11-14 13:17:21.661,,,,,,,,,,,,,,,,,,,,,,,,,,,,,,,,,,,,,,,,,,/muse/elements/blink
2568-11-14 13:17:22.565,0.6605525659903791,0.3787014815335637,0,0.6140072304397817,0.8321134780298075,0.05967450477994359,0,0.6998014779519982,1.539462798696769,0.3694428653685408,0,1.592033087731223,0.6694710323299996,-0.07339123410915617,0,0.5213282370500165,0.5316252328726786,-0.4843770818754378,0,0.05584961776860949,1099.59706959707,794.1758241758242,807.0695970695971,801.4285714285714,984.3589743589744,0.105469,0.077332,0.990845,-0.328979,-1.248627,-0.171967,555238.095238,113565934.065934,56125787.545788,76.721260,1,1,1,1,1,70.000000
2568-11-14 13:17:22.885,,,,,,,,,,,,,,,,,,,,,,,,,,,,,,,,,,,,,,,,,,/muse/elements/blink
2568-11-14 13:17:23.556,0.8839788396265125,0.5816521967215692,0,0.6999838911000527,0.9102236264028725,0.0847750334758796,0,0.8050397518944706,1.830089183198953,0.4112544373508688,0,1.877070992894197,0.5260500852282992,-0.02262864720768664,0,0.4710753728644635,0.6013221188652627,-0.5183143190826196,0,0.1661357689082493,587.4725274725275,799.4139194139194,899.7435897435897,756.7032967032967,418.6446886446886,0.112244,0.076233,0.993591,-0.284119,-2.003784,-0.164490,545567.765568,113472454.212454,56003296.703297,76.474800,1,1,1,1,1,70.000000
2568-11-14 13:17:24.197,,,,,,,,,,,,,,,,,,,,,,,,,,,,,,,,,,,,,,,,,,/muse/elements/blink
2568-11-14 13:17:24.556,0.5026144030033624,-0.1081216924316443,0,0.2620711066420869,0.8010142290189808,-0.2682190371419309,0,0.5781210219178952,1.810512647030139,0.3899073121249236,0,1.867352827461224,0.616323051601036,0.002974482993700325,0,0.5645592128278809,0.5027137757880591,-0.3896632574349782,0,0.02190258415092306,550.8058608058608,807.0695970695971,915.8608058608058,821.1721611721612,407.3626373626374,0.117432,0.080322,0.998230,-0.059814,-1.562653,0.613098,552820.512821,113342710.622711,55984761.904762,76.458900,1,1,1,1,1,70.000000
2568-11-14 13:17:25.556,0.4552754567468828,-0.06881507432791752,0,0.6435173090506473,0.8152522864243201,-0.5090301610812898,0,0.6911010024774947,1.784724224516764,0.1601917851047694,0,1.600674266806851,0.5648425108289767,-0.0005722519002635076,0,0.523742461169235,0.3254056601185589,-0.4805179193877601,0,0.04634773699064987,965.0183150183151,801.025641025641,717.2161172161173,846.1538461538462,1012.564102564103,0.124084,0.078125,0.993530,0.007477,-2.041168,0.590668,544761.904762,113386227.106227,56046813.186813,77.769310,1,1,1,1,1,70.000000
2568-11-14 13:17:25.646,,,,,,,,,,,,,,,,,,,,,,,,,,,,,,,,,,,,,,,,,,/muse/elements/blink
2568-11-14 13:17:26.556,0.5591561369036545,0.2240101736511428,0,0.7118056656120746,0.9539937830196289,-0.1304967798748937,0,0.8067892215827336,1.733575674891084,0.1032414323287721,0,1.624148157705843,0.524115334030316,0.0396891347359344,0,0.4403410925917451,0.3170176553674253,-0.5528572285005766,0,0.123071148242765,513.7362637362637,803.040293040293,920.6959706959707,740.1831501831502,452.4908424908425,0.119446,0.076965,0.995361,-0.134583,-1.786957,-0.157013,536703.296703,113231501.831502,55944468.864469,78.185432,1,1,1,1,1,70.000000
2568-11-14 13:17:26.626,,,,,,,,,,,,,,,,,,,,,,,,,,,,,,,,,,,,,,,,,,/muse/elements/blink
2568-11-14 13:17:26.869,,,,,,,,,,,,,,,,,,,,,,,,,,,,,,,,,,,,,,,,,,/muse/elements/blink
2568-11-14 13:17:27.228,,,,,,,,,,,,,,,,,,,,,,,,,,,,,,,,,,,,,,,,,,/muse/elements/blink
2568-11-14 13:17:27.556,0.4416176889254879,0.4421119069253953,0,0.852327391496827,0.786129577972655,0.03605020377563421,0,0.807753545318016,1.710125039927403,-0.03032757039984444,0,1.610957662241707,0.6344097455009644,0.07495838920884122,0,0.5639108174568424,0.3861827785863015,-0.4908327404712033,0,0.128211661772388,576.996336996337,797.3992673992674,898.1318681318681,776.8498168498169,563.2967032967033,0.116760,0.083496,0.995361,0.246735,-1.757050,0.598145,546373.626374,113126739.926740,55931575.091575,77.489037,1,1,1,1,1,70.000000
2568-11-14 13:17:27.978,,,,,,,,,,,,,,,,,,,,,,,,,,,,,,,,,,,,,,,,,,/muse/elements/blink
2568-11-14 13:17:28.561,0.3574265760988266,0.4262008084446415,0,0.8430561166569999,0.7157031550183119,0.08977244834327931,0,0.709443281706291,1.703837965349166,-0.1052518458364609,0,1.599965975423081,0.6484533488661645,0.05589720047500996,0,0.512195596856297,0.4222634044995263,-0.4106182305741685,0,0.1112279037271016,847.3626373626374,799.0109890109891,901.3553113553114,745.4212454212454,570.1465201465202,0.122620,0.078918,0.991089,-0.299072,-1.487885,-0.074768,543956.043956,113148498.168498,56003296.703297,78.225235,1,1,1,1,1,70.000000
2568-11-14 13:17:29.388,,,,,,,,,,,,,,,,,,,,,,,,,,,,,,,,,,,,,,,,,,/muse/elements/blink
2568-11-14 13:17:29.558,0.7251021988104169,0.371589438953719,0,0.3755129370089644,0.7568196215210984,0.1169432597472214,0,0.5694689330861091,1.586764896104466,0.303186495746825,0,1.561822632823515,0.5964411181545949,-0.002047347323806634,0,0.3489413182551617,0.4249863783540106,-0.4666935000947067,0,0.1308393755850098,497.6190476190476,806.2637362637363,921.9047619047619,778.4615384615385,411.3919413919414,0.124451,0.078552,0.995544,-0.007477,-2.100983,-0.351410,539926.739927,113067106.227106,55955750.915751,79.766113,1,1,1,1,1,70.000000
2568-11-14 13:17:30.556,0.6727952262938692,0.4416946531049325,0,0.7421918653090029,0.8257724003199128,0.1126631474855953,0,0.6395453065453419,1.567360065367012,0.3286637377147208,0,1.487537089061709,0.5917669153882511,-0.01716878835605733,0,0.351285578622146,0.293089528002636,-0.5493094840172688,0,0.05918474051466743,608.8278388278388,798.6080586080586,924.7252747252747,816.3369963369963,547.985347985348,0.114258,0.081177,0.993042,-0.777588,-1.218719,-1.390686,546373.626374,113074358.974359,55983150.183150,79.508453,1,1,1,1,1,70.000000
2568-11-14 13:17:30.602,,,,,,,,,,,,,,,,,,,,,,,,,,,,,,,,,,,,,,,,,,/muse/elements/blink
2568-11-14 13:17:31.559,0.7971649090777507,0.2049389802463569,0,0.6101982329735682,0.9686443837191914,-0.07294660343468194,0,0.6696204060774438,1.408262186841406,0.1511118688936579,0,1.205296836180176,0.4780774708442255,-0.1324348420506933,0,0.4304865479964065,0.2935627044946004,-0.5793936753528167,0,-0.01835487460211827,716.8131868131868,812.7106227106227,854.2124542124542,772.8205128205128,735.7509157509157,0.110535,0.072937,0.994202,0.157013,-2.429962,-1.704712,545567.765568,113038095.238095,55938827.838828,78.711525,1,1,1,1,1,70.000000
2568-11-14 13:17:31.924,,,,,,,,,,,,,,,,,,,,,,,,,,,,,,,,,,,,,,,,,,/muse/elements/blink
2568-11-14 13:17:32.559,1.089575159082494,0.637418982579501,0,1.062582299898133,1.179399089526655,0.09581083211137428,0,0.7453049383600697,1.229073276972411,0.3874372534947798,0,0.9771713945251693,0.6289304944323357,-0.000773989857101189,0,0.4627837558338952,0.4292659407063386,-0.4983726260046635,0,0.1975270446917019,467.3992673992674,801.025641025641,908.6080586080586,794.5787545787546,614.8717948717949,0.106689,0.073242,0.985718,-1.061707,-2.213135,0.971985,541538.461538,113129157.509158,55946886.446886,79.569557,1,1,1,1,1,70.000000
2568-11-14 13:17:33.555,1.400480287361821,0.5647881868979241,0,1.275985149112158,1.220559615730993,0.03085668183151588,0,0.6700455397665578,1.298202280791219,0.3686351948077183,0,1.350486077193185,0.8908284612867478,0.0334565451620923,0,0.5106586985537506,0.6528311910923587,-0.3288058967423664,0,0.06145441001516981,700.6959706959707,791.3553113553114,819.1575091575091,793.7728937728938,593.919413919414,0.101990,0.076416,0.988464,-0.186920,-1.495361,-0.807495,553626.373626,112917216.117216,55896117.216117,80.361588,1,1,1,1,1,70.000000
2568-11-14 13:17:34.556,1.481932140382407,0.3124390542320046,0,1.22892329890151,1.298242856199072,-0.05819352431218979,0,0.6952656156240794,1.455034586427606,0.1491973393974863,0,1.388343266220273,0.9277349181126784,0.07970090263379859,0,0.4749333365330092,0.6157884514119581,-0.4844137009858142,0,-0.08245035328886262,1083.479853479854,797.3992673992674,744.2124542124542,846.5567765567765,828.8278388278388,0.094910,0.080627,0.997314,0.261688,-1.914062,0.471039,552820.512821,112951062.271062,55983956.043956,78.951630,1,1,1,1,1,70.000000
2568-11-14 13:17:35.557,1.494502177023221,0.3575935556030569,0,1.462709588088947,1.271184392951237,-0.2002313058879424,0,0.8376225723917504,1.368124349022956,0.2036305351900587,0,0.9949187468871841,0.9923949401974294,-0.04685224004560645,0,0.3559602471465705,0.4122871881987155,-0.5444796681270199,0,0.07336845362927887,455.7142857142857,799.8168498168499,931.1721611721612,732.1245421245421,583.4432234432235,0.101257,0.078125,0.997925,-0.112152,-1.450500,-0.732727,548791.208791,112895457.875458,55884029.304029,79.286186,1,1,1,1,1,70.000000
2568-11-14 13:17:36.555,1.439708775034064,0.4277098208911152,0,1.488891776651221,1.119549226656245,0.07023186096277781,0,0.8130243287325063,1.247106512080426,0.3675181466468715,0,0.9105571406841951,0.8757085345750516,-0.142392125972117,0,0.2981637952934625,0.4496793096956926,-0.5036674187808217,0,-0.05212160473212588,628.974358974359,801.4285714285714,854.2124542124542,822.7838827838829,723.6630036630037,0.091370,0.083130,0.995544,0.239258,-1.286011,0.598145,560073.260073,112906739.926740,55943663.003663,79.900764,1,1,1,1,1,70.000000
2568-11-14 13:17:37.558,1.189941179047248,0.3229707378730818,0,1.297770904025247,0.6185031662553938,-0.01601904806799222,0,0.6735228484210786,1.150410013532566,0.4450138020028536,0,1.451730531479505,0.5779699026787433,-0.02512932844562245,0,0.4478529064535079,0.4317956723957951,-0.4113077294218494,0,-0.01375420070241109,953.7362637362637,798.2051282051282,830.8424908424909,782.0879120879121,749.047619047619,0.088928,0.080017,0.993347,0.186920,-1.413116,0.104675,560073.260073,113113846.153846,56087106.227106,80.869324,1,1,1,1,1,70.000000
2568-11-14 13:17:38.557,1.141009100508124,0.3542236369656896,0,1.357523900526417,0.7876764626615748,-0.2199698551093113,0,0.9207040692365162,1.629169418898533,0.392801818008531,0,1.780170836858719,0.7493381718612978,0.02723633716707609,0,0.4686232153259413,0.4020772232104273,-0.3780012955560327,0,0.08655239357395519,602.7838827838827,799.0109890109891,885.6410256410256,737.3626373626374,558.8644688644689,0.094238,0.079590,0.995911,-0.239258,-1.428070,-0.515900,558461.538462,113026813.186813,56016996.336996,81.557854,1,1,1,1,1,70.000000
2568-11-14 13:17:39.568,1.342482481854528,0.4834447056402907,0,1.066106461857089,0.8589550356798635,-0.2305445769884016,0,0.6992429416363166,1.58660601122312,0.3918391566699324,0,1.658254357190207,0.6101086125153234,-0.055483008526157,0,0.4580685600822819,0.4099323053124199,-0.3843330589295049,0,0.0569725253663394,501.2454212454213,808.6813186813187,942.0512820512821,786.9230769230769,411.3919413919414,0.093750,0.079285,0.992981,0.164490,-1.517792,0.598145,552014.652015,113016336.996337,56027472.527473,80.853264,1,1,1,1,1,70.000000
2568-11-14 13:17:39.947,,,,,,,,,,,,,,,,,,,,,,,,,,,,,,,,,,,,,,,,,,/muse/elements/blink
2568-11-14 13:17:40.556,1.525564671563929,0.3775719931592608,0,1.144650690563061,0.9239669806045654,-0.1719011720042074,0,0.5588848014588833,1.556989279255815,-0.02514921609732741,0,1.612939413763341,0.6253170749511144,-0.05982023382575647,0,0.5405732378709225,0.3676093063484668,-0.3328927733866051,0,-0.1377701089214039,688.6080586080586,795.3846153846154,813.919413919414,807.8754578754579,595.1282051282052,0.094727,0.078064,1.000793,0.276642,-1.786957,-0.418701,552014.652015,112967179.487179,56095970.695971,80.559151,1,1,1,1,1,70.000000
2568-11-14 13:17:41.556,1.303507711995964,0.2206373435731793,0,1.010022630246376,0.8737730164708193,-0.03233708922685814,0,0.6632437404593023,1.584978315026804,-0.04762010784377402,0,1.493458831476969,0.588158969705414,-0.03406023663304381,0,0.4556955315858445,0.3430446408738423,-0.434282981323089,0,-0.03296414110513587,875.9706959706959,797.3992673992674,736.5567765567765,767.1794871794872,835.2747252747253,0.107178,0.084412,0.996948,0.164490,-1.644897,0.291595,556043.956044,112911575.091575,56047619.047619,79.850182,1,1,1,1,1,70.000000
2568-11-14 13:17:42.555,1.20522246779377,3.142433475479932e-05,0,1.180356737702107,0.735553416823616,-0.1477724867139379,0,0.5318362175928187,1.506679937787897,0.3487470021374939,0,1.534198549911706,0.6911831794497212,-0.07974632102031898,0,0.5580401752470532,0.3435359051066783,-0.5629854578537982,0,0.1535044401744378,626.1538461538462,807.4725274725275,959.3772893772895,760.3296703296703,392.051282051282,0.092224,0.086792,1.000183,-0.134583,-1.659851,0.358887,543956.043956,112893040.293040,56023443.223443,79.233238,1,1,1,1,1,70.000000
2568-11-14 13:17:42.621,,,,,,,,,,,,,,,,,,,,,,,,,,,,,,,,,,,,,,,,,,/muse/elements/blink
2568-11-14 13:17:42.907,,,,,,,,,,,,,,,,,,,,,,,,,,,,,,,,,,,,,,,,,,/muse/elements/blink
2568-11-14 13:17:43.569,1.085522728788434,0.286820079700854,0,1.18813523639679,0.5921801475695827,-0.03414838662396634,0,0.7839765157630848,1.470513063436244,0.4112730757477228,0,1.417539717687685,0.7719768669924629,0.06338751697300406,0,0.487945206116727,0.4321361030626416,-0.4662791533496348,0,-0.04832400778165394,1006.117216117216,790.952380952381,780.8791208791209,818.7545787545788,936.8131868131868,0.086121,0.082031,0.995789,-0.396271,-1.428070,-0.523376,543150.183150,112952673.992674,56087912.087912,80.565239,1,1,1,1,1,70.000000
2568-11-14 13:17:44.121,,,,,,,,,,,,,,,,,,,,,,,,,,,,,,,,,,,,,,,,,,/muse/elements/blink
2568-11-14 13:17:44.568,0.8909760453670619,0.338226653036963,0,1.012557954032523,0.6094575606017955,-0.04233477194623067,0,0.7595023302434838,1.442656533016397,0.4047547418855293,0,1.417539717687685,0.6469667008775116,0.0501566295424574,0,0.6149825888795217,0.3409942988022875,-0.4036186535354567,0,0.04483621653400476,1104.432234432235,801.025641025641,707.948717948718,781.2820512820513,819.96336996337,0.096802,0.079773,0.998047,0.201874,-1.742096,-0.456085,541538.461538,112822124.542125,55979120.879121,81.987480,1,1,1,1,1,70.000000
2568-11-14 13:17:45.440,,,,,,,,,,,,,,,,,,,,,,,,,,,,,,,,,,,,,,,,,,/muse/elements/blink
2568-11-14 13:17:45.556,0.6160922662773217,0.2579605439933025,0,1.071984579153106,0.65815139646833,-0.08443125268911759,0,0.490066878556114,1.402304969070709,0.2143300396694249,0,1.469940765361936,0.6381978254332921,-0.03293731576015293,0,0.6333739920713356,0.2867236047900975,-0.5421862827207162,0,0.148762174215664,857.032967032967,807.8754578754579,948.4981684981685,756.3003663003664,457.7289377289378,0.094971,0.087219,1.001770,0.239258,-1.667328,0.216827,552014.652015,112788278.388278,56031501.831502,82.062019,1,1,1,1,1,70.000000
2568-11-14 13:17:46.556,0.7437559034800676,0.462338428893918,0,1.180669152770827,0.7053461917413144,-0.02211210651646243,0,0.7025111899545673,1.740930750221717,0.3182705632907201,0,1.880900197930702,0.7139104906011695,-0.06079620580815621,0,0.6401835000416397,0.3498200500539548,-0.3525186775756871,0,-0.01463463460262174,552.4175824175825,802.6373626373627,861.0622710622711,747.4358974358975,598.7545787545788,0.089233,0.083130,0.996643,-0.246735,-1.958923,-0.074768,550402.930403,112846300.366300,56131428.571429,80.805679,1,1,1,1,1,70.000000
2568-11-14 13:17:46.738,,,,,,,,,,,,,,,,,,,,,,,,,,,,,,,,,,,,,,,,,,/muse/elements/blink
2568-11-14 13:17:46.979,,,,,,,,,,,,,,,,,,,,,,,,,,,,,,,,,,,,,,,,,,/muse/elements/blink
2568-11-14 13:17:47.568,0.5689030018503378,0.272360680571851,0,1.151800850565089,0.9140594884734849,0.2726851984682624,0,0.6029098371038943,1.905116801046981,0.4349806423973505,0,1.879512008998197,0.8368818806856722,0.01932057056188633,0,0.8063181293852769,0.3974450751355117,-0.4362803820099443,0,-0.05582380670434036,1040.3663003663,790.952380952381,684.5787545787546,780.0732600732601,866.3003663003664,0.102478,0.082214,0.999084,-0.074768,-1.727142,-0.874786,547985.347985,112852747.252747,56088717.948718,80.035431,1,1,1,1,1,70.000000
2568-11-14 13:17:48.197,,,,,,,,,,,,,,,,,,,,,,,,,,,,,,,,,,,,,,,,,,/muse/elements/blink
2568-11-14 13:17:48.378,,,,,,,,,,,,,,,,,,,,,,,,,,,,,,,,,,,,,,,,,,/muse/elements/blink
2568-11-14 13:17:48.555,0.9062154848169851,0.3028841739212008,0,1.446415231415286,0.9119619947600146,0.2140687315494731,0,0.6948888447341734,1.753849320289512,0.1949811254332433,0,1.734263199869826,0.6579999424349972,0.01714572414762183,0,0.6319168426532078,0.3285048847639752,-0.3811251319944115,0,0.2367654500492018,1059.304029304029,802.2344322344322,823.1868131868132,746.2271062271062,774.8351648351648,0.097900,0.083740,0.994202,0.523376,-1.398163,0.029907,556043.956044,112855164.835165,56148351.648352,80.045013,1,1,1,1,1,70.000000
2568-11-14 13:17:49.411,,,,,,,,,,,,,,,,,,,,,,,,,,,,,,,,,,,,,,,,,,/muse/elements/blink
2568-11-14 13:17:49.557,1.060632668594107,0.2525531323236084,0,1.385984730975396,0.6829152445308948,0.156709182432888,0,0.7502132342981312,1.502341085067854,0.3787614643564469,0,1.56095873682808,0.4995749244175172,0.02152683072393624,0,0.6334881085682289,0.253995615705326,-0.3994683477293453,0,0.1573145019509247,574.981684981685,799.4139194139194,799.4139194139194,774.0293040293041,734.5421245421246,0.092712,0.083496,0.997742,0.067291,-2.056122,0.299072,557655.677656,112917216.117216,56249890.109890,79.314125,1,1,1,4,1,70.000000
2568-11-14 13:17:49.698,,,,,,,,,,,,,,,,,,,,,,,,,,,,,,,,,,,,,,,,,,/muse/elements/blink
2568-11-14 13:17:50.556,0.5115234979132937,0.1755752234732383,0,1.350113038081453,0.6685163927108868,-0.02991702478688486,0,0.9101243836787803,1.646221295669783,0.408149184265179,0,1.608002578061364,0.5408106909954523,-0.01702294308947339,0,0.5329767645114512,0.2915175435580173,-0.4239498956435739,0,0.12267862048726,863.8827838827839,788.5347985347986,710.7692307692308,840.5128205128206,878.3882783882784,0.099365,0.084045,0.992981,-0.523376,-2.893524,0.328979,565714.285714,113031648.351648,56218461.538462,78.488716,1,1,1,1,1,70.000000
2568-11-14 13:17:50.817,,,,,,,,,,,,,,,,,,,,,,,,,,,,,,,,,,,,,,,,,,/muse/elements/blink
2568-11-14 13:17:51.015,,,,,,,,,,,,,,,,,,,,,,,,,,,,,,,,,,,,,,,,,,/muse/elements/blink
2568-11-14 13:17:51.563,0.6627520730430827,0.5268626928264294,0,1.481210006624133,0.5679454839646073,-0.1066099378459795,0,1.070106514227961,1.627096466611559,0.3890521718537044,0,1.50139571031123,0.4497637510751594,0.1195027117241385,0,0.4581187738637761,0.2523160924916201,-0.4252561111663881,0,0.1192015328528977,1122.564102564103,804.6520146520147,799.0109890109891,895.7142857142858,842.9304029304029,0.095886,0.077637,0.990662,-0.209351,-1.689758,0.179443,546373.626374,112886593.406593,56229743.589744,78.730339,1,1,1,1,1,70.000000
2568-11-14 13:17:52.223,,,,,,,,,,,,,,,,,,,,,,,,,,,,,,,,,,,,,,,,,,/muse/elements/blink
2568-11-14 13:17:52.570,0.7946828309492986,0.7096831116927319,0,1.184814817804784,0.6955082192664477,0.1630342360737005,0,0.7299878955182226,1.525798540132532,0.5305716900080559,0,1.432452952377944,0.6509861203841745,0.1501473139024114,0,0.6122449569019955,0.3508738878085859,-0.5370391863764158,0,-0.01220866800811791,512.1245421245421,802.6373626373627,877.1794871794872,811.9047619047619,746.2271062271062,0.099854,0.081116,0.993164,0.246735,-1.824341,0.194397,550402.930403,112824542.124542,56207985.347985,78.208214,1,1,1,1,1,70.000000
2568-11-14 13:17:53.563,0.6937588573794119,0.2180760477734596,0,0.6917515604751158,0.5734480843099904,-0.09989910447674015,0,0.4553644250328934,1.65400062066031,0.4785347611126332,0,1.550980152856449,0.7959371260464458,-0.1172061286762495,0,0.5179478695084528,0.3939868409914499,-0.5224796522214625,0,-0.02977013465257665,641.0622710622711,794.1758241758242,735.3479853479854,821.978021978022,892.0879120879121,0.094543,0.084412,0.998352,0.725250,-2.115936,0.179443,548791.208791,112871282.051282,56116923.076923,78.629852,1,1,1,1,1,70.000000
2568-11-14 13:17:53.678,,,,,,,,,,,,,,,,,,,,,,,,,,,,,,,,,,,,,,,,,,/muse/elements/blink
2568-11-14 13:17:54.569,0.5109504139930787,0.4253312961160651,0,0.5360588477131389,0.5999591489222192,0.009673710861591739,0,0.3427016912361155,1.921427314670341,0.2911794845728306,0,1.726551710761961,0.628276346873111,-0.07929234789921426,0,0.4539955647692465,0.2520529935425506,-0.4592754448583166,0,0.1518995195543429,864.6886446886447,794.1758241758242,933.992673992674,767.985347985348,485.9340659340659,0.097534,0.078613,0.993469,0.142059,-1.981354,-0.284119,541538.461538,112747985.347985,56054871.794872,79.413033,1,1,1,1,1,70.000000
2568-11-14 13:17:55.086,,,,,,,,,,,,,,,,,,,,,,,,,,,,,,,,,,,,,,,,,,/muse/elements/blink
2568-11-14 13:17:55.556,0.4804220870556349,0.2613939088565942,0,0.5322648213819553,0.4505017025803302,0.03084476189480416,0,0.2698400806694924,1.82022516273176,0.1958639265971866,0,1.68169713997081,0.5150580119231397,-0.1491889403292417,0,0.4232624912425304,0.3080452378666149,-0.5326007154623701,0,0.1319921889740913,705.934065934066,790.5494505494506,899.7435897435897,779.6703296703297,651.5384615384615,0.096802,0.083618,0.991150,0.022430,-2.018738,-0.904694,544761.904762,112723003.663004,56052454.212454,79.315353,1,1,1,1,1,70.000000
2568-11-14 13:17:56.558,0.5446308522136435,0.2940258624455199,0,0.5012945167843257,0.3585881183527985,-0.02724098722524986,0,0.25274423046805,1.401461659073515,0.1938067191603848,0,1.460520301850381,0.3923536241339661,-0.07921567793827325,0,0.3247378108571323,0.1662695345163422,-0.5693770752438184,0,0.08925030404918848,651.1355311355312,800.6227106227107,855.0183150183151,821.978021978022,690.2197802197802,0.103577,0.078308,0.992249,-0.493469,-2.272949,0.306549,542344.322344,112704468.864469,56011355.311355,78.738541,1,1,1,1,1,70.000000
2568-11-14 13:17:57.555,0.3250893681244281,0.2179159403016802,0,0.5409916134999556,0.5152633334259369,-0.03893982262757845,0,0.5980618239190542,1.307252765676857,0.2403437828355096,0,1.246090541619095,0.3901488633237548,-0.05283524418323735,0,0.4136582805717165,0.3679032159321255,-0.4808590202773624,0,0.1555945439167056,784.9084249084249,798.6080586080586,854.2124542124542,819.5604395604396,544.3589743589744,0.104797,0.086426,0.996582,-0.381317,-1.570129,-0.194397,548791.208791,112384542.124542,55969450.549451,80.017708,1,1,1,1,1,70.000000
2568-11-14 13:17:58.565,0.4608211735462431,0.113687137542459,0,0.420853374274693,0.5884292144524604,-0.2042423925985925,0,0.602434751143028,0.9964505954714645,0.1758760535672073,0,1.161595913739355,0.4618712168921263,-0.06147889525961733,0,0.4455693123631935,0.393545545503924,-0.5231085561621573,0,0.08977105215672153,755.8974358974359,792.967032967033,855.4212454212454,791.3553113553114,724.8717948717949,0.098877,0.078186,0.994263,0.014954,-1.682281,-0.029907,550402.930403,112237875.457875,56033919.413919,80.345680,1,1,1,2,1,70.000000
2568-11-14 13:17:59.558,0.5427415266512341,0.1222785064223896,0,0.3020102814302929,0.5613348663492583,-0.06974103736620385,0,0.3153409082343946,0.9867495926913864,-0.04104074839266746,0,0.7866640837105342,0.4599898269704715,-0.2128748526993803,0,0.4358769487694862,0.2213096184663518,-0.6155653786462643,0,-0.06413452074243629,540.3296703296703,801.025641025641,896.5201465201466,797.3992673992674,561.2820512820513,0.109741,0.081421,0.993469,-0.254211,-1.525269,-0.725250,544761.904762,112412747.252747,56232967.032967,80.129379,1,1,1,2,1,70.000000
2568-11-14 13:18:00.556,0.5350685337519926,0.05163279491676161,0,0.2820057965409264,0.4995895345258429,-0.1136704068184745,0,0.09686134587738633,0.8228469903118391,0.164137040286754,0,0.9961010372127609,0.4914095516252788,-0.139653519693384,0,0.3675640479661672,0.2108944618710491,-0.5545421008261933,0,-0.01454728143881023,639.047619047619,794.981684981685,825.6043956043957,810.2930402930403,838.0952380952381,0.105347,0.077881,0.992188,-0.142059,-1.921539,-0.142059,554432.234432,112412747.252747,56205567.765568,78.653526,1,1,1,2,1,70.000000
2568-11-14 13:18:01.558,0.2695719898765622,0.08459731068225584,0,0.5836803853506032,0.4354312485141557,0.06248222001689886,0,0.151289359359092,0.9043305445245733,0.3448157698738124,0,1.308531576336422,0.5293786574087327,-0.05409149609216297,0,0.340268524939491,0.2572768602790601,-0.5181113124099369,0,0.01507098558982455,902.5641025641025,797.8021978021978,828.8278388278388,778.8644688644689,788.9377289377289,0.104553,0.079529,0.991699,-0.097198,-1.816864,-0.456085,556043.956044,112486886.446886,56276483.516484,77.490944,1,1,1,2,1,70.000000
2568-11-14 13:18:02.557,0.623221617405603,-0.3125448242224722,0,0.345960077040837,0.5118763240551367,-0.04776616190188025,0,0.2959886059635158,0.9907475619242413,0.3233304680099208,0,1.272565810627392,0.5251635847088602,-0.05077790012447143,0,0.3139960498871154,0.2304410328286808,-0.5712781262237439,0,0.00732658056620594,594.3223443223443,790.952380952381,888.8644688644689,748.2417582417582,387.2161172161173,0.114075,0.078003,0.991638,-0.538330,-1.869202,-0.186920,549597.069597,112468351.648352,56290989.010989,78.830673,1,1,1,1,1,70.000000
2568-11-14 13:18:03.556,0.5321458260747628,0.3480733677949532,0,0.5761949535804053,0.5257508472858931,-0.2150121137472784,0,0.3445035450994182,0.7754821569163093,0.179758364630502,0,0.9501289520002392,0.4091870945841741,-0.1036741008097694,0,0.2656521279581503,0.2897209007353633,-0.734039841693544,0,-0.02823209234767253,631.7948717948718,805.0549450549451,913.8461538461539,893.6996336996338,724.8717948717949,0.130127,0.080872,0.992432,0.112152,-2.841187,-0.142059,550402.930403,112304761.904762,56170109.890110,80.504547,1,1,1,1,1,70.000000
2568-11-14 13:18:04.556,0.6704371273567835,0.4495466225790526,0,0.7745464156111044,0.5477431979718859,0.3135037975971418,0,0.3976903014975568,0.2346682813344441,0.5582066445685264,0,0.0005576325843305216,0.5173431311978804,0.9301395696331392,0,0.113273898533049,0.2818170878177878,0.6649370247943581,0,-0.2072638529961472,996.0439560439561,800.2197802197802,730.5128205128206,780.4761904761905,1110.879120879121,0.116882,0.077148,0.988037,0.127106,-1.614990,0.179443,549597.069597,112147619.047619,56044395.604396,80.971741,1,1,1,2,1,70.000000
2568-11-14 13:18:05.568,1.036215048672158,0.2733344533300142,0,0.7556792925124879,1.187450756522823,0.3740839979583098,0,0.3473321422258528,1.019039953230823,0.5739646026330683,0,-0.01516542455134298,0.7733966263917096,1.045382500499587,0,0.1531574280880574,0.4835933456128698,0.8676625162903526,0,-0.2399275368069549,620.5128205128206,799.4139194139194,828.4249084249085,736.1538461538462,652.3443223443223,0.121277,0.085510,0.996216,0.628052,-1.315918,1.682281,554432.234432,112353919.413919,56288571.428571,79.862450,1,1,1,1,1,70.000000
2568-11-14 13:18:06.556,1.100865609717127,0.106758109082875,0,0.7556792925124879,1.290767945166345,-0.1572891313020993,0,0.3473321422258528,1.016297110793536,0.4640573448933111,0,-0.01516542455134298,0.7924250357320107,0.2920499877388478,0,0.1531574280880574,0.5653784335023772,0.2477937043697579,0,-0.2399275368069549,481.0989010989011,796.1904761904763,964.2124542124542,796.5934065934066,558.0586080586081,0.131042,0.078369,0.990051,-1.278534,-1.772003,1.607513,539926.739927,111427985.347985,54691355.311355,77.682632,1,1,1,1,1,70.000000
2568-11-14 13:18:06.850,,,,,,,,,,,,,,,,,,,,,,,,,,,,,,,,,,,,,,,,,,/muse/elements/jaw_clench
2568-11-14 13:18:07.563,1.100865609717127,0.6144752120284052,0,0.7556792925124879,1.290767945166345,-0.03661328885645807,0,0.3473321422258528,1.016297110793536,0.3357607319529477,0,-0.01516542455134298,0.7924250357320107,-0.1747570089104225,0,0.1531574280880574,0.5653784335023772,-0.2388631160868475,0,-0.2399275368069549,1062.527472527473,800.2197802197802,729.3040293040293,807.8754578754579,996.8498168498169,0.109314,0.074341,0.991333,-0.209351,-1.869202,-0.807495,560073.260073,112754432.234432,57014652.014652,78.320709,1,1,1,1,1,70.000000
2568-11-14 13:18:08.556,1.116129586569874,0.5827771385871497,0,1.288093058935545,0.9420636316450894,-0.2515138571594935,0,0.6546420096390794,1.240057764455787,0.04443689550583161,0,0.8478809960785074,0.8728162046342147,-0.05219359970544326,0,0.5099815507826305,0.4889241340566121,-0.4911655267286158,0,0.2160498604597551,684.1758241758242,798.6080586080586,895.3113553113553,762.3443223443223,475.8608058608059,0.110657,0.080566,0.987915,0.306549,-1.383209,-0.373840,561684.981685,112883369.963370,57082344.322344,78.759010,1,1,1,1,1,70.000000
2568-11-14 13:18:09.556,0.9424346100722414,0.361827005239199,0,0.9450721022128862,0.8587790811262686,-0.2157097356415348,0,0.5492647167383997,1.161756436380501,0.03460084076379496,0,1.120761367143569,0.8642330624319332,0.01993395253077626,0,0.5232231898523181,0.404080446083959,-0.3307975997740881,0,0.2481040115497481,560.0732600732601,800.2197802197802,796.5934065934066,802.6373626373627,819.1575091575091,0.097900,0.080383,0.989685,-0.097198,-1.338348,0.044861,556849.816850,112689963.369963,56988864.468864,78.759010,1,1,1,1,1,70.000000
2568-11-14 13:18:09.696,,,,,,,,,,,,,,,,,,,,,,,,,,,,,,,,,,,,,,,,,,/muse/elements/blink
2568-11-14 13:18:10.559,0.803698966325007,0.2990406223595665,0,0.9586133876117774,0.7871112684869938,-0.2436479046547761,0,0.2710656375885265,1.051095610999665,-0.01314334160581426,0,1.153381681494029,0.7681153370730647,-0.03796226880697508,0,0.5923848054696583,0.4834466777947711,-0.4145612658065153,0,0.1961848962596512,1000.47619047619,803.040293040293,565.3113553113553,804.6520146520147,1248.278388278388,0.095825,0.077332,0.990479,0.142059,-1.727142,-0.463562,562490.842491,112624688.644689,57013040.293040,78.759010,1,1,1,1,1,70.000000
2568-11-14 13:18:11.566,0.8331351819374808,-0.009610993105834171,0,0.817331492081852,0.6575407316379883,-0.1012010618471369,0,0.3529377969362205,0.9214287474983511,0.02854344318191176,0,1.000273685985601,0.6012308394355458,-0.06835832838143364,0,0.5591408576416497,0.4392205759521773,-0.5059342394687808,0,0.09184679256361723,628.5714285714286,802.2344322344322,915.0549450549451,762.3443223443223,358.2051282051282,0.095093,0.078003,0.991516,0.201874,-2.138367,-0.314026,557655.677656,112483663.003663,56950989.010989,78.759010,1,1,1,1,1,70.000000
2568-11-14 13:18:12.141,,,,,,,,,,,,,,,,,,,,,,,,,,,,,,,,,,,,,,,,,,/muse/elements/blink
2568-11-14 13:18:12.556,0.7594757247942798,0.01391635903923119,0,1.483898123840532,0.5643328532520282,-0.08723316755707057,0,1.024893693867954,0.7413668423986292,0.06914524003976884,0,1.416113371384228,0.5778772316935817,-0.08984594684531304,0,0.5711516861414894,0.4148359473819371,-0.3673621647600102,0,0.05272789814321245,595.1282051282052,799.0109890109891,847.3626373626374,815.934065934066,811.5018315018315,0.098877,0.085327,0.997253,0.052338,-2.280426,0.052338,561684.981685,112523150.183150,57076703.296703,83.131889,1,1,1,1,1,70.000000
2568-11-14 13:18:13.548,,,,,,,,,,,,,,,,,,,,,,,,,,,,,,,,,,,,,,,,,,/muse/elements/blink
2568-11-14 13:18:13.561,0.4367823070855071,0.5485661550557457,0,1.752105149620604,0.63877234925065,-0.2662258129749851,0,1.271744612921601,0.8425843185166411,-0.0321260648394636,0,1.417250901673313,0.6901408949080824,-0.247793067080429,0,0.5902585076804105,0.374523259690222,-0.5302966279838145,0,-0.08953245489778926,884.4322344322345,801.025641025641,821.5750915750916,773.6263736263736,781.6849816849817,0.093933,0.082764,0.995605,0.127106,-1.405640,-0.441132,562490.842491,112629523.809524,57060586.080586,83.544098,1,1,1,1,1,70.000000
2568-11-14 13:18:14.567,0.6653480967603376,0.4022351672235675,0,0.4960413142697875,0.5276974522233521,0.1477036135533334,0,0.3247377341323253,0.8904328033977105,0.03715704625669054,0,0.9267381367412872,0.614434982781054,-0.2329612021464015,0,0.5256795486071593,0.3525468175287859,-0.4894206385866861,0,-0.1380870927166482,498.021978021978,803.8461538461539,926.7399267399268,749.4505494505495,349.3406593406593,0.096375,0.085449,0.996704,0.194397,-1.555176,0.082245,552014.652015,112600512.820513,57153260.073260,84.117256,1,1,1,1,1,70.000000
2568-11-14 13:18:15.556,0.6389162085089608,0.3067027488206226,0,0.4638976317470102,0.475290401729155,0.1166167920715964,0,0.3568695484545348,0.880651227834353,-0.09061801551046073,0,0.9634654865769647,0.4363437297625479,-0.1296348613142782,0,0.474322113277034,0.205671527724305,-0.5669623182016466,0,-0.1109562233046796,747.032967032967,801.025641025641,770,836.0805860805862,1020.622710622711,0.098755,0.084290,0.988342,0.014954,-2.355194,0.067291,559267.399267,112656923.076923,57242710.622711,84.861549,1,1,1,1,1,70.000000
2568-11-14 13:18:16.562,0.3656652082541905,0.1176113894735723,0,0.3803874232999566,0.3483577340255241,-0.1637750521525279,0,0.3108521230862689,1.07827380323676,-0.3664261385418727,0,0.8864720271855823,0.573375868010382,-0.09174798677130278,0,0.3214364925621136,0.2904500865577021,-0.5604563390449216,0,-0.08696890917246575,675.7142857142858,796.1904761904763,790.1465201465202,754.6886446886447,826.007326007326,0.091309,0.085632,0.996582,-0.022430,-1.816864,0.246735,550402.930403,112644835.164835,57200805.860806,84.144035,1,1,1,1,1,70.000000
2568-11-14 13:18:17.556,0.5753701269833172,-0.02415921413506894,0,0.5421919278328599,0.4929610885049722,-0.07093014158632363,0,0.3302409171421575,1.209570835999807,0.08055699290024841,0,1.112393640984559,0.5457033047996581,-0.1029924960327916,0,0.3042861860762209,0.4221984034497206,-0.4082371502077814,0,0.07094245684094341,594.3223443223443,807.0695970695971,850.989010989011,825.6043956043957,517.7655677655678,0.098083,0.083374,0.991394,0.508423,-1.487885,0.157013,546373.626374,112672234.432234,57295091.575092,82.704193,1,1,1,1,1,70.000000
2568-11-14 13:18:18.420,,,,,,,,,,,,,,,,,,,,,,,,,,,,,,,,,,,,,,,,,,/muse/elements/blink
2568-11-14 13:18:18.556,0.475999773667209,0.0354437351480292,0,0.6020950735442825,0.6278411411762262,-0.03895189134298472,0,0.356537277983645,1.497402850192735,0.1719660952367967,0,1.480096292711027,0.5965695281018872,-0.06895750435811843,0,0.4335571112115201,0.3715996534505341,-0.4156585086123816,0,0.05992603527236062,952.1245421245421,794.5787545787546,838.0952380952381,853.0036630036631,828.021978021978,0.096741,0.089417,0.993652,-0.314026,-2.183228,-0.231781,543150.183150,112754432.234432,57432087.912088,82.578499,1,1,1,1,1,70.000000
2568-11-14 13:18:18.660,,,,,,,,,,,,,,,,,,,,,,,,,,,,,,,,,,,,,,,,,,/muse/elements/blink
2568-11-14 13:18:19.556,0.4377420392391512,0.06597868439102295,0,1.059692629786149,0.6638634907955954,-0.2203137119160027,0,0.6690970297380048,1.450917317278892,0.1213762828518371,0,1.476485427412489,0.451729461330438,0.1068910665943267,0,0.2113798247809863,0.2492536964599241,-0.56044478819261,0,0.06558089148705569,566.5201465201466,798.2051282051282,579.8168498168499,673.2967032967033,789.3406593406594,0.107849,0.087280,0.996887,0.082245,-1.921539,-0.628052,543956.043956,112889010.989011,57379706.959707,81.407059,1,1,1,1,1,70.000000
2568-11-14 13:18:19.645,,,,,,,,,,,,,,,,,,,,,,,,,,,,,,,,,,,,,,,,,,/muse/elements/blink
2568-11-14 13:18:20.556,0.3805952448833808,0.1159484412900471,0,1.13915705963331,0.7022997083113586,-0.1336033770373585,0,0.7905591704459994,1.629749256275722,-0.02410149935716496,0,1.076673348541818,0.3564848926246508,0.06360066445142762,0,0.3024379614393863,0.3260136021654766,-0.5964501022108045,0,0.2473853752333345,780.4761904761905,791.3553113553114,798.6080586080586,826.8131868131868,662.8205128205128,0.107910,0.086243,0.993835,0.186920,-1.659851,0.142059,556043.956044,112818095.238095,57395018.315018,80.125397,1,1,1,1,1,70.000000
2568-11-14 13:18:21.556,0.9221978644401682,0.2800723244166969,0,0.4290822987627138,1.048200609737197,-0.09296156590063823,0,0.3017943357247766,1.715102711967227,0.2321613554817493,0,1.139516076869272,0.6481817638361066,-0.02432646101283762,0,0.4892817396512458,0.5919274336969399,-0.5485204594445682,0,0.1647796456440446,1102.820512820513,800.6227106227107,665.2380952380953,807.4725274725275,1158.827838827839,0.106995,0.089233,0.995667,0.104675,-2.153320,0.366364,546373.626374,112883369.963370,57452234.432234,80.644661,1,1,1,1,1,70.000000
2568-11-14 13:18:22.562,1.144706456344905,0.3819908951886284,0,0.6493017045639314,1.260478454921525,-0.04409422435640893,0,0.6227635106346202,1.347729836275105,0.2761039983746046,0,0.8566725517590532,0.8669492823202477,0.0246105167343658,0,0.3161562318108947,0.6017087190271604,-0.5496136453149445,0,-0.0009767541351728352,539.1208791208792,794.5787545787546,806.2637362637363,811.9047619047619,872.3443223443223,0.108948,0.086182,1.000793,-0.022430,-1.772003,-0.837402,556043.956044,112883369.963370,57382930.402930,80.301125,1,1,1,1,1,70.000000
2568-11-14 13:18:23.556,0.948137456192701,0.1966626528319587,0,0.5240172459895638,1.202850572034312,-0.502311872098208,0,0.4077594854205504,1.253889804889705,-0.1001301237005872,0,0.5767478865490389,0.7989201267863915,-0.07252314277367118,0,0.3386120364530034,0.2774110926281341,-0.5451321326056168,0,0.017808334931632,986.7765567765568,797.8021978021978,778.4615384615385,824.3956043956044,653.1501831501831,0.108459,0.090942,0.997131,0.508423,-1.562653,0.485992,552014.652015,112876923.076923,57347472.527473,80.032272,1,1,1,1,1,70.000000
2568-11-14 13:18:24.556,0.6141236377667556,-0.01460883178982826,0,0.2887347158416688,0.7317773391214876,-0.1501199360008406,0,0.2366570239846658,1.15451406779382,0.2323038117229367,0,0.8508907091261383,0.6348678334428491,-0.1375074613851385,0,0.1678564852092199,0.2156792519148412,-0.6070900894731109,0,0.01461890627675681,1004.908424908425,803.8461538461539,692.6373626373627,780.8791208791209,1109.67032967033,0.112000,0.086731,0.995544,0.007477,-2.489777,-0.067291,561684.981685,112948644.688645,57385347.985348,80.371445,1,1,1,1,1,70.000000
2568-11-14 13:18:25.556,0.616924284283189,0.1967496466098688,0,0.3371356126088302,0.4295774303659009,0.2429644602318901,0,0.3966569692506707,1.200381580292095,0.3635473059937955,0,1.199043244499447,0.5223234021722898,-0.01428967733399822,0,0.4492805496889486,0.2801791665784846,-0.5888884970117885,0,0.09306725300274438,759.1208791208792,796.996336996337,560.8791208791209,813.1135531135532,1340.549450549451,0.118408,0.083923,0.994751,0.044861,-2.332764,-0.889740,556043.956044,112797948.717949,57299926.739927,80.016182,1,1,1,1,1,70.000000
2568-11-14 13:18:26.561,0.5648682958124288,0.1248246496511689,0,0.7647101790906631,0.7288549858555383,-0.1189642473359026,0,0.4361111751529732,1.174378822065843,0.2773005947400629,0,1.262425301474757,0.5716754781361432,-0.02505762691557437,0,0.4957679166689171,0.2914068737988988,-0.6064177384669056,0,0.0314847775064523,1149.157509157509,799.8168498168499,793.7728937728938,813.919413919414,599.9633699633699,0.116150,0.087341,0.989319,-0.179443,-1.659851,-0.097198,544761.904762,112768937.728938,57315238.095238,80.060539,1,1,1,1,1,70.000000
2568-11-14 13:18:27.556,0.5148243998460148,0.1008920940089676,0,0.6910888750884469,0.6940281622991392,-0.3176988736204656,0,0.4761630368378168,0.7763160681711611,0.1039769624679241,0,0.9375254676300732,0.7932113834551293,-0.07505154306712022,0,0.3960818478427857,1.051034571628022,-0.5185534837621185,0,0.08009019530077602,620.5128205128206,796.1904761904763,869.92673992674,780.8791208791209,707.1428571428571,0.128357,0.089294,0.994385,0.291595,-1.084137,-0.119629,552820.512821,112807619.047619,57351501.831502,80.766518,1,1,1,4,1,70.000000
2568-11-14 13:18:28.561,0.8927155037279001,0.2269069535003469,0,0.3158107309831918,0.7800405894728932,-0.1912570121845233,0,0.2541977170100354,0.7914053764195775,0.1109775593586601,0,0.9568782600577652,0.7705904884890892,-0.157198387325295,0,0.2099866621640089,0.6421244454679753,-0.6100058778288037,0,-0.06885056013710822,1124.175824175824,800.2197802197802,572.5641025641025,815.934065934066,1237.802197802198,0.108887,0.089172,0.993164,-0.224304,-0.134583,1.278534,543956.043956,112674652.014652,57196776.556777,79.911064,1,1,1,1,1,70.000000
2568-11-14 13:18:29.570,0.8858146826212951,0.08741814527505325,0,0.1504303920253079,0.8331498375324862,-0.08282353528856831,0,0.09165063354560782,0.9442166481583599,0.007707778233632562,0,0.9576272741843117,0.8588064038254167,0.05244256034713403,0,0.2110297132292311,0.3554320642145896,-0.7000848239823578,0,-0.1652963297044003,926.7399267399268,798.2051282051282,883.6263736263736,813.1135531135532,588.6813186813187,0.109558,0.080261,0.998352,-0.358887,-1.719666,-1.540222,544761.904762,112486886.446886,57103296.703297,79.364914,1,1,1,1,1,70.000000
2568-11-14 13:18:30.556,0.9312790502305753,-0.1228486454328376,0,0.3669617499938403,0.6235819297006868,-0.1713206557528593,0,0.3934720677307038,1.007085035231412,0.2435519712347386,0,0.8393082357888257,0.795645581095983,-0.06228855229510352,0,0.4403038048474591,0.3981587764774478,-0.5613054824358649,0,0.003945897777917567,246.1904761904762,791.3553113553114,845.7509157509157,728.901098901099,588.2783882783883,0.099426,0.073181,0.992188,-0.029907,-3.551483,0.418701,547985.347985,112540073.260073,57104102.564103,79.364914,1,1,1,1,1,70.000000
2568-11-14 13:18:30.762,,,,,,,,,,,,,,,,,,,,,,,,,,,,,,,,,,,,,,,,,,/muse/elements/blink
2568-11-14 13:18:30.762,,,,,,,,,,,,,,,,,,,,,,,,,,,,,,,,,,,,,,,,,,/muse/elements/jaw_clench
2568-11-14 13:18:31.556,0.9150837092062529,0.17087408799107,0,0.4318970299174204,0.483146384348431,-0.1350745940957386,0,0.4970493170147619,0.6641016950685158,0.2928077912774598,0,0.7871519735441246,0.6022146854039974,-0.07488592472350751,0,0.4088038984024173,0.4498216065950632,-0.3740945028570576,0,0.1446420896045612,1159.6336996337,791.7582417582418,874.3589743589744,813.1135531135532,817.948717948718,0.070068,0.072021,1.004028,0.381317,-0.762634,0.530853,548791.208791,112372454.212454,56929230.769231,77.128380,1,1,1,1,1,70.000000
2568-11-14 13:18:32.561,0.9150837092062529,0.3098691539169495,0,0.6804856405762352,0.483146384348431,-0.1382275021627413,0,0.3602270585374488,0.6641016950685158,0.1655037251081918,0,1.077938719316082,0.6022146854039974,-0.09980616700317586,0,0.5991002075711269,0.4498216065950632,-0.4220574537481001,0,0.1688148561736781,723.2600732600732,794.981684981685,861.0622710622711,806.6666666666667,501.2454212454213,0.058655,0.068604,0.996460,-0.306549,-1.742096,-0.643005,560073.260073,112252380.952381,56905860.805861,80.591217,1,1,1,1,1,70.000000
2568-11-14 13:18:32.588,,,,,,,,,,,,,,,,,,,,,,,,,,,,,,,,,,,,,,,,,,/muse/elements/blink
2568-11-14 13:18:33.556,0.5213837301638483,0.3960801101483498,0,0.6625123588148212,0.5956072010075379,-0.3275560941147835,0,0.2874061570070193,1.430781533447812,0.2706652218447522,0,1.432955545196424,0.7433096914780063,-0.1654780333794941,0,0.5759112136139855,0.8163058280093369,-0.435472301368399,0,0.08794192733066045,471.0256410256411,787.7289377289378,780.4761904761905,736.5567765567765,741.7948717948718,0.061279,0.086060,1.002014,0.343933,-1.614990,0.314026,556043.956044,112284615.384615,56974358.974359,84.033318,1,1,1,1,1,70.000000
2568-11-14 13:18:33.905,,,,,,,,,,,,,,,,,,,,,,,,,,,,,,,,,,,,,,,,,,/muse/elements/blink
2568-11-14 13:18:33.905,,,,,,,,,,,,,,,,,,,,,,,,,,,,,,,,,,,,,,,,,,/muse/elements/jaw_clench
2568-11-14 13:18:34.557,0.5479649840052196,0.2400962563786877,0,0.5436886552055199,0.5334418133839807,-0.2921739683763037,0,0.2547962989468855,1.415402760373736,0.286541144189176,0,1.381833420947398,0.7671219428635869,-0.04703345200951699,0,0.6152415507907452,0.805015104016413,-0.3540358634893139,0,0.1388678928463647,368.2783882783883,782.0879120879121,696.2637362637363,752.2710622710623,556.8498168498169,0.065063,0.091431,0.997437,0.067291,-1.697235,0.291595,563296.703297,112633553.113553,57256410.256410,87.280846,1,1,1,1,1,70.000000
2568-11-14 13:18:34.717,,,,,,,,,,,,,,,,,,,,,,,,,,,,,,,,,,,,,,,,,,/muse/elements/blink
2568-11-14 13:18:35.567,0.5124679127007107,0.275026515918791,0,1.359071673812614,0.4140953124864131,-0.05407126693313311,0,0.5453074298706519,1.404120176305331,0.3572391196842662,0,1.742786796058554,0.6591575317839565,-0.1922745089977921,0,0.6612823050747022,0.7270071842335166,-0.4315950129060039,0,-0.1054164357985611,777.6556776556777,803.8461538461539,898.1318681318681,767.1794871794872,598.3516483516484,0.055847,0.081848,0.989319,-0.246735,-2.041168,0.014954,561684.981685,112748791.208791,57281391.941392,89.426117,1,1,1,2,1,70.000000
2568-11-14 13:18:35.836,,,,,,,,,,,,,,,,,,,,,,,,,,,,,,,,,,,,,,,,,,/muse/elements/blink
2568-11-14 13:18:36.563,0.5014018372643118,0.1366577715384117,0,0.9827451491308377,0.6473616777809024,-0.08406994236063288,0,0.499434788656863,1.800648432683704,0.3966759566051829,0,1.792017318431823,0.7520152221731236,-0.2188014522265251,0,0.4471344699113414,0.8606532936159584,-0.4067671732109762,0,-0.01529623782720051,145.4578754578755,804.2490842490843,702.3076923076924,713.992673992674,683.7728937728938,0.056396,0.082825,0.997986,0.306549,-0.986938,-0.157013,565714.285714,112743150.183150,57319267.399267,86.272896,1,1,1,2,1,70.000000
2568-11-14 13:18:37.048,,,,,,,,,,,,,,,,,,,,,,,,,,,,,,,,,,,,,,,,,,/muse/elements/blink
2568-11-14 13:18:37.560,0.4235279417678078,0.0005537241116631814,0,0.4968779482969942,0.7070426606132624,0.047356950690144,0,0.3598636257886619,1.495337923106885,0.2215938612552266,0,1.684895486576218,0.7480300852202056,-0.05494497642067376,0,0.417933592505997,0.7527628481199591,-0.3938058887072874,0,-0.08538075605861346,1335.714285714286,797.3992673992674,895.3113553113553,857.032967032967,1032.710622710623,0.062256,0.090637,0.996216,0.089722,-2.616882,0.747681,563296.703297,112754432.234432,57395824.175824,84.866936,1,1,1,2,1,70.000000
2568-11-14 13:18:38.274,,,,,,,,,,,,,,,,,,,,,,,,,,,,,,,,,,,,,,,,,,/muse/elements/blink
2568-11-14 13:18:38.557,0.8472490625370401,0.1694468322295409,0,0.6081616565876882,1.152398265470361,-0.1399979439626932,0,0.5053389457446397,1.835745110568217,0.2161864843852073,0,1.317530935124381,0.9664919197741111,-0.08458360444536625,0,0.3884764004753072,0.8337965145769274,-0.4169151663460142,0,-0.03627553565787423,282.4542124542124,802.6373626373627,867.1062271062272,729.3040293040293,276.4102564102564,0.059875,0.085938,0.996399,-0.171967,-1.525269,-0.299072,553626.373626,112403076.923077,57286227.106227,84.193138,1,1,1,2,1,70.000000
2568-11-14 13:18:39.493,,,,,,,,,,,,,,,,,,,,,,,,,,,,,,,,,,,,,,,,,,/muse/elements/blink
2568-11-14 13:18:39.557,1.061507929121968,0.3430168679256919,0,0.4711735213951949,1.435057455555459,0.133548905721834,0,0.4948058450103544,1.796036636440281,0.4933550931897712,0,1.313045943282269,1.261044236788488,-0.118593803092739,0,0.5400492670834903,0.8419966429230635,-0.5717897303504536,0,0.05554572281759598,367.4725274725275,799.0109890109891,672.0879120879121,761.5384615384615,618.4981684981685,0.058350,0.089294,0.996155,0.134583,-1.719666,-0.343933,559267.399267,112508644.688645,57314432.234432,83.182442,1,1,1,2,1,70.000000
2568-11-14 13:18:40.556,0.9257571369380593,0.5883135611857244,0,0.887642332869287,1.495847787744729,0.2505502814745051,0,0.5993505292638507,1.699038278808308,0.5090757299557213,0,1.238692203045952,1.133979991089822,-0.1828750617621656,0,0.598692479016969,0.8173013684584467,-0.5451121467751048,0,0.01681433599390318,1357.472527472527,792.1611721611722,848.974358974359,868.7179487179487,946.4835164835165,0.062500,0.088440,0.995361,-0.426178,-2.878571,0.545807,552820.512821,112523150.183150,57278168.498168,82.580177,1,1,1,2,1,70.000000
2568-11-14 13:18:40.806,,,,,,,,,,,,,,,,,,,,,,,,,,,,,,,,,,,,,,,,,,/muse/elements/blink
2568-11-14 13:18:41.566,1.366892708637335,0.3618571373189346,0,0.804991733330059,1.602580374411183,-0.03677264769980382,0,0.3444104299465828,1.575518589062786,0.1749069421221813,0,0.7975901581575341,1.152707253160425,-0.129086917012473,0,0.3417973953315939,0.8329174611961446,-0.6012274411361054,0,-0.02170573352522874,130.1465201465201,794.1758241758242,834.0659340659341,646.7032967032967,142.6373626373626,0.063416,0.085449,1.000122,-0.216827,-1.861725,0.007477,556043.956044,112552161.172161,57379706.959707,82.621971,1,1,1,2,1,70.000000
2568-11-14 13:18:41.920,,,,,,,,,,,,,,,,,,,,,,,,,,,,,,,,,,,,,,,,,,/muse/elements/blink
2568-11-14 13:18:42.556,1.125198531146675,0.1856243890700128,0,1.036655047496666,1.394792671986795,-0.2166085155138712,0,0.5120957688266802,1.393217701062799,0.2356849659028948,0,1.302089946279763,1.076996933202704,-0.07466201723955333,0,0.5143758556070063,0.7630404431412997,-0.4681564305709854,0,0.191388849087941,863.4798534798535,803.040293040293,821.978021978022,913.4432234432235,757.1062271062272,0.064758,0.088806,0.999390,0.284119,-2.145844,0.672913,534285.714286,112660146.520147,57446593.406593,81.749901,1,1,1,2,1,70.000000
2568-11-14 13:18:43.160,,,,,,,,,,,,,,,,,,,,,,,,,,,,,,,,,,,,,,,,,,/muse/elements/blink
2568-11-14 13:18:43.568,-0.1141979758635549,0.1752089039797096,0,1.187536772171603,0.9450578630724974,-0.3241414729508533,0,0.6638153458610236,1.325655729822445,0.2625826883911345,0,1.375577865443719,0.9712250683814347,0.02095067691989409,0,0.8260516514867295,0.850278576325785,-0.3286368943819234,0,0.5033766885793663,360.6227106227107,793.3699633699634,696.6666666666667,689.0109890109891,645.0915750915751,0.056335,0.084900,0.997375,-0.239258,-2.250519,0.014954,560073.260073,112676263.736264,57313626.373626,81.229111,1,1,1,2,1,70.000000
2568-11-14 13:18:44.492,,,,,,,,,,,,,,,,,,,,,,,,,,,,,,,,,,,,,,,,,,/muse/elements/blink
2568-11-14 13:18:44.556,0.7283650588707588,0.3158235544621183,0,0.8707683417826633,0.6460370586811617,-0.1760178722268875,0,0.5103317839416257,1.224834814819625,0.1669446072300676,0,1.290388838422797,0.9365572072380675,0.006399387881510571,0,0.7222915696228046,0.9112509636585204,-0.273602381598641,0,0.4147971090726346,642.2710622710623,801.025641025641,893.6996336996338,749.4505494505495,741.7948717948718,0.068604,0.086975,1.006348,0.052338,-1.667328,-0.545807,566520.146520,112483663.003663,57318461.538462,81.826378,1,1,1,2,1,70.000000
2568-11-14 13:18:45.557,0.7514623874981401,0.2818296671496472,0,0.957376156098115,0.8126396686419902,-0.2366875528203263,0,0.7950159942350647,1.49543118348114,-0.08032609746095717,0,1.594381783879301,0.9565047701934686,-0.03265773752163247,0,0.6909695597017957,0.7972429122282952,-0.4251967185405091,0,0.05453446098833201,1292.600732600733,803.4432234432235,861.0622710622711,862.6739926739926,830.0366300366301,0.063843,0.081909,1.000916,-0.403748,-2.257996,-0.485992,562490.842491,112449010.989011,57287838.827839,81.616905,1,1,1,2,1,70.000000
2568-11-14 13:18:45.775,,,,,,,,,,,,,,,,,,,,,,,,,,,,,,,,,,,,,,,,,,/muse/elements/blink
2568-11-14 13:18:46.557,0.3678278628994242,-0.02139334234301045,0,0.6719446198413778,0.8696963248309726,-0.08407863640386594,0,0.4219165339312478,1.464765963458977,0.2044561837261952,0,1.361816634941541,0.7666422737080129,0.0003270792843034517,0,0.5013610008506741,0.8042615370674671,-0.4821165518261348,0,0.160294573343307,1259.157509157509,798.2051282051282,793.7728937728938,858.2417582417582,977.5091575091575,0.066833,0.088013,1.001892,0.927124,-1.607513,-0.149536,572967.032967,112573113.553114,57408717.948718,79.816650,1,1,1,2,1,70.000000
2568-11-14 13:18:46.983,,,,,,,,,,,,,,,,,,,,,,,,,,,,,,,,,,,,,,,,,,/muse/elements/blink
2568-11-14 13:18:47.567,0.4211183026455383,0.2958521084999849,0,0.5522624271205526,0.9298521553210992,0.1718226613530733,0,0.3280890860830989,1.458960899797956,0.2134457387831322,0,1.439302157456628,0.8568135427104042,-0.05000121075091531,0,0.4834464211163869,0.8650250873718005,-0.5626851600782671,0,0.06879231190495382,728.0952380952381,787.7289377289378,884.0293040293041,778.4615384615385,405.7509157509157,0.065552,0.083557,0.996521,-0.583191,-1.988831,-0.022430,569743.589744,112498974.358974,57301538.461538,79.001419,1,1,1,2,1,70.000000
2568-11-14 13:18:48.212,,,,,,,,,,,,,,,,,,,,,,,,,,,,,,,,,,,,,,,,,,/muse/elements/blink
2568-11-14 13:18:48.557,0.4115117651250368,0.1972220174259351,0,0.635189370254414,0.7321050780485341,0.09996118126661774,0,0.3942313816132083,1.306770594535021,0.08576041178334193,0,1.528982605204904,0.8441335959758574,-0.1194464039521074,0,0.400999079817368,0.8198167766571554,-0.3747776673932171,0,0.05616014917916354,1440.476190476191,801.8315018315019,764.7619047619048,902.5641025641025,1264.798534798535,0.064331,0.085693,0.995300,-0.209351,-1.502838,0.074768,571355.311355,112465934.065934,57324908.424908,79.069756,1,1,1,2,1,70.000000
2568-11-14 13:18:49.521,,,,,,,,,,,,,,,,,,,,,,,,,,,,,,,,,,,,,,,,,,/muse/elements/blink
2568-11-14 13:18:49.557,0.3937066407409635,0.1304161502559117,0,0.6875921962817201,0.8139835719970084,-0.1527916718485236,0,0.4985598682785838,1.389784786565638,-0.09445874992117798,0,1.457192581807231,0.8690803767282648,-0.2753359188071978,0,0.4470389900047899,0.9514400010193579,-0.4321718334201476,0,0.134133707662202,811.9047619047619,797.3992673992674,810.6959706959707,776.4468864468864,617.2893772893773,0.068970,0.078796,1.004272,-0.478516,-1.869202,-0.927124,570549.450549,112524761.904762,57429670.329670,78.422508,1,1,1,2,1,70.000000
2568-11-14 13:18:49.759,,,,,,,,,,,,,,,,,,,,,,,,,,,,,,,,,,,,,,,,,,/muse/elements/jaw_clench
2568-11-14 13:18:50.569,0.6450436750084776,0.05441543739594601,0,0.809772971931871,0.8435771979628737,-0.2693623327794832,0,0.5954877279395238,1.312442628791115,0.07424216490924428,0,1.530176686343759,0.8870854799544776,-0.1628765786016951,0,0.4973936529310788,0.9103485323236121,-0.4822764900225824,0,-0.04773869966333531,1134.652014652015,804.6520146520147,903.3699633699634,844.9450549450549,668.8644688644689,0.073608,0.087769,0.998413,-0.239258,-1.644897,0.829926,564102.564103,112486080.586081,57313626.373626,78.383919,1,1,1,1,1,70.000000
2568-11-14 13:18:50.730,,,,,,,,,,,,,,,,,,,,,,,,,,,,,,,,,,,,,,,,,,/muse/elements/blink
2568-11-14 13:18:51.564,0.6893540718201475,0.1693762794667721,0,0.9110703179040771,0.8839365257921276,-0.03393583849940844,0,0.7358035095094323,1.168631735513457,0.2813979309634592,0,1.532173212674464,0.5540057222584099,-0.02328186723607653,0,0.4365951821889917,0.6860151455536224,-0.3991158368659307,0,-0.04390414816215748,1338.534798534798,804.6520146520147,841.3186813186813,884.0293040293041,1045.201465201465,0.076050,0.082642,0.996216,-0.119629,-2.108459,0.246735,568937.728938,112395824.175824,57325714.285714,78.931335,1,1,1,2,1,70.000000
2568-11-14 13:18:51.968,,,,,,,,,,,,,,,,,,,,,,,,,,,,,,,,,,,,,,,,,,/muse/elements/blink
2568-11-14 13:18:52.557,0.609323687707128,0.09255565779257971,0,0.4519855082305924,0.9001050691685037,-0.006307246119708328,0,0.5552211758832137,1.01405051705267,0.2739556335325995,0,1.452270213654832,0.606284817528646,0.01616389009889218,0,0.3771091612389314,0.7170303127572322,-0.3183840733305593,0,-0.1843984988394452,438.3882783882784,797.8021978021978,817.5457875457876,758.3150183150184,471.8315018315018,0.070984,0.083984,0.997253,-0.157013,-2.071075,0.515900,560073.260073,112453846.153846,57402271.062271,78.893059,1,1,1,2,1,70.000000
2568-11-14 13:18:53.299,,,,,,,,,,,,,,,,,,,,,,,,,,,,,,,,,,,,,,,,,,/muse/elements/blink
2568-11-14 13:18:53.558,0.456846042310746,0.1152262374634959,0,0.5578579531216324,0.7203132178775704,-0.1771224515760159,0,0.4025996475867732,1.43906582864259,-0.03516616452989436,0,1.48029865571716,0.6601565999599077,-0.2258596848812294,0,0.4483843742768757,0.7211833388732273,-0.4557432746129859,0,-0.2640722491886484,1525.091575091575,796.5934065934066,898.9377289377289,925.5311355311355,959.3772893772895,0.085693,0.079163,0.997314,-0.493469,-1.502838,-0.471039,554432.234432,112476410.256410,57321684.981685,78.932953,1,1,1,1,1,70.000000
2568-11-14 13:18:54.400,,,,,,,,,,,,,,,,,,,,,,,,,,,,,,,,,,,,,,,,,,/muse/elements/blink
2568-11-14 13:18:54.556,0.9172858276809077,0.2511018361325512,0,1.152468330972206,1.150088595748701,-0.1814003703419292,0,0.7026232004298943,1.661723341072539,0.2668289576254991,0,0.8472211864894902,1.108535660704154,-0.2779179745737307,0,0.5764056508214578,0.9962429120892151,-0.4522283039234503,0,0.06141215464429903,1087.106227106227,791.3553113553114,894.5054945054945,834.0659340659341,985.5677655677656,0.080322,0.080688,0.995972,0.067291,-1.816864,-0.598145,559267.399267,112421611.721612,57312014.652015,79.145020,1,1,1,2,1,70.000000
2568-11-14 13:18:55.559,1.27503760305819,0.1288668960230876,0,0.9380817034716826,1.333687525427375,0.09010505271331481,0,0.5212630366133465,1.64148272796274,0.3332260733959233,0,1.054123971878832,1.269684708142128,0.3418632892593566,0,0.5924206766464808,1.078875124413249,-0.1690740391743838,0,0.113366291738617,996.0439560439561,808.6813186813187,725.2747252747253,829.2307692307693,819.96336996337,0.083313,0.081543,0.995972,-0.142059,-1.973877,0.149536,552820.512821,112328937.728938,57211282.051282,79.002068,1,1,1,1,1,70.000000
2568-11-14 13:18:55.624,,,,,,,,,,,,,,,,,,,,,,,,,,,,,,,,,,,,,,,,,,/muse/elements/blink
2568-11-14 13:18:56.126,,,,,,,,,,,,,,,,,,,,,,,,,,,,,,,,,,,,,,,,,,/muse/elements/jaw_clench
2568-11-14 13:18:56.558,1.27503760305819,0.1057713344552677,0,0.6677154688783783,1.333687525427375,0.2453867510456167,0,0.6112583133557211,1.64148272796274,0.3107298386543655,0,0.8588673652468614,1.269684708142128,0.806188199336617,0,0.6047927130658478,1.078875124413249,0.196187589838031,0,0.1579377719244978,1574.249084249084,800.2197802197802,998.0586080586081,900.952380952381,974.6886446886447,0.076599,0.079773,0.997498,-0.142059,-1.644897,-0.657959,563296.703297,112310402.930403,57232234.432234,78.786522,1,1,1,2,1,70.000000
2568-11-14 13:18:56.742,,,,,,,,,,,,,,,,,,,,,,,,,,,,,,,,,,,,,,,,,,/muse/elements/jaw_clench
2568-11-14 13:18:56.851,,,,,,,,,,,,,,,,,,,,,,,,,,,,,,,,,,,,,,,,,,/muse/elements/blink
2568-11-14 13:18:57.556,0.3285646885480801,0.02720755439919165,0,0.2494391301379019,1.394867500567723,-0.01128189129280179,0,0.4159484924498046,1.288987542337236,0.239130893284593,0,0.7230314317363566,1.201039004875565,0.3483815087305472,0,0.6435368286421248,1.151237901994147,-0.08564551940346556,0,0.1910670835183458,525.8241758241759,797.3992673992674,784.9084249084249,730.1098901098901,946.0805860805862,0.082458,0.083313,0.995728,0.291595,-1.719666,0.149536,556849.816850,112226593.406593,57220952.380952,78.684044,1,1,1,1,1,70.000000
2568-11-14 13:18:58.186,,,,,,,,,,,,,,,,,,,,,,,,,,,,,,,,,,,,,,,,,,/muse/elements/blink
2568-11-14 13:18:58.559,0.6858226110764046,-0.07166327583343814,0,0.7114077237669431,1.22197672358426,-0.2834376944264643,0,0.3973360838169799,1.322111276864178,0.4964976067550102,0,1.031305379668726,1.127500098131475,0.365357503868194,0,0.5019328545685883,1.136450285097421,-0.02999692763377817,0,0.2661924614876293,1411.868131868132,785.3113553113553,806.6666666666667,848.974358974359,1039.56043956044,0.075378,0.076294,0.997498,-0.052338,-1.884155,0.014954,568937.728938,112180659.340659,57567472.527473,78.796799,1,2,1,1,1,70.000000
2568-11-14 13:18:59.408,,,,,,,,,,,,,,,,,,,,,,,,,,,,,,,,,,,,,,,,,,/muse/elements/blink
2568-11-14 13:18:59.557,0.8222348571944056,0.1362235881918515,0,1.096545655550885,1.018653009789257,-0.0570608003345953,0,1.002198130048595,1.178283381622468,0.4363664662102731,0,1.204988973014031,1.145625591953721,0.294531132602423,0,0.4160077751707059,1.193181548254622,-0.2872602412067716,0,0.001880777000718865,1118.534798534798,801.8315018315019,898.1318681318681,847.3626373626374,778.0586080586081,0.082947,0.078064,0.999084,-0.089722,-1.929016,-0.351410,573772.893773,112407912.087912,57293479.853480,80.052238,1,2,1,1,1,70.000000
2568-11-14 13:19:00.573,0.9077156309925329,0.1680075996035098,0,0.9113700337180884,1.014387474273286,-0.06442294821092499,0,0.845698031057454,1.104032874090885,0.08346142643798435,0,1.159908365813358,0.7866491308168413,0.008642192348589121,0,0.4947101753569803,0.8907111467166599,-0.6578750666267492,0,-0.02215615437642562,101.1355311355311,794.5787545787546,774.4322344322345,667.2527472527473,457.3260073260074,0.075317,0.072266,1.000549,-0.224304,-1.136475,-0.493469,565714.285714,112378901.098901,57273333.333333,80.735100,1,2,1,1,1,70.000000
2568-11-14 13:19:00.620,,,,,,,,,,,,,,,,,,,,,,,,,,,,,,,,,,,,,,,,,,/muse/elements/blink
2568-11-14 13:19:01.556,1.142644926348229,0.5678841821912198,0,0.4523467872799377,0.96302995004443,-0.07642270320572424,0,0.4895295595042113,1.071082952672296,0.4951999855274887,0,0.8886217377913074,0.6990301292524173,0.07298258140793815,0,0.489297533206478,0.8429468959587111,-0.4281640540209661,0,-0.03907936523914242,381.5750915750916,796.996336996337,764.7619047619048,735.7509157509157,229.2673992673993,0.072754,0.073669,0.992004,-0.186920,-1.368256,-0.396271,570549.450549,112395018.315018,57328131.868132,81.217354,1,2,1,1,1,70.000000
2568-11-14 13:19:01.852,,,,,,,,,,,,,,,,,,,,,,,,,,,,,,,,,,,,,,,,,,/muse/elements/blink
2568-11-14 13:19:02.570,1.331878812348006,0.5978760036807583,0,0.7479160392793278,0.8137209039587908,0.06062498253952551,0,0.630622748630524,0.7589258558350983,0.4896925757607539,0,0.7248476346783586,0.6785289589142589,0.2009731102262851,0,0.4240502635962051,0.8648847114547872,-0.3113386746076546,0,0.1307828741325544,585.0549450549451,798.2051282051282,906.5934065934066,748.6446886446887,543.956043956044,0.081299,0.078613,1.003540,-0.022430,-1.697235,-0.142059,563296.703297,112204029.304029,57161318.681319,81.947197,1,1,1,2,1,70.000000
2568-11-14 13:19:03.054,,,,,,,,,,,,,,,,,,,,,,,,,,,,,,,,,,,,,,,,,,/muse/elements/blink
2568-11-14 13:19:03.270,,,,,,,,,,,,,,,,,,,,,,,,,,,,,,,,,,,,,,,,,,/muse/elements/blink
2568-11-14 13:19:03.556,0.5976578487974907,-0.2669336766703266,0,0.6478165488776422,0.5398485120004429,0.04874185235662978,0,0.6771767428140592,0.8588583661173823,0.07380305223940986,0,0.8914629091489507,0.4743633996015436,0.04091387150988538,0,0.5524902075770296,0.8459798437930764,-0.368625170201372,0,0.09266723942942973,276.8131868131868,799.0109890109891,553.2234432234433,717.2161172161173,1012.161172161172,0.074097,0.076477,0.994080,-0.209351,-2.086029,-0.089722,572967.032967,112274945.054945,57189523.809524,81.287460,1,1,1,2,1,70.000000
2568-11-14 13:19:04.385,,,,,,,,,,,,,,,,,,,,,,,,,,,,,,,,,,,,,,,,,,/muse/elements/blink
2568-11-14 13:19:04.564,0.8220512767157602,0.2270601305035113,0,1.126408986402383,0.8078766825617216,0.1290283247321822,0,0.7908528404799074,0.7064934686676014,0.2869566504150482,0,0.9305561297116653,0.7118648139902662,-0.07577649354634226,0,0.6483558161322106,0.933173302744405,-0.4292889429100458,0,0.180484894933204,956.1538461538462,792.1611721611722,850.5860805860806,792.1611721611722,708.3516483516484,0.081604,0.074951,1.004822,0.104675,-2.048645,-0.059814,567326.007326,112436117.216117,57378095.238095,81.307747,1,1,1,2,1,70.000000
2568-11-14 13:19:05.570,0.7945883009361884,0.2239194653498663,0,1.326124982962013,0.9723851953883876,-0.1154282381582353,0,0.7473974207738792,0.7696451833219596,0.2704595915235873,0,0.9011044221212723,0.6910489379826864,-0.1404659610519124,0,0.505452184160642,0.903565697113061,-0.4898678238653554,0,0.1860188296093162,307.8388278388279,809.0842490842491,882.014652014652,703.5164835164835,208.3150183150183,0.073120,0.075867,1.001831,0.560760,-2.003784,0.321503,558461.538462,112399853.479853,57264468.864469,82.001610,1,1,1,2,1,70.000000
2568-11-14 13:19:05.597,,,,,,,,,,,,,,,,,,,,,,,,,,,,,,,,,,,,,,,,,,/muse/elements/blink
2568-11-14 13:19:05.885,,,,,,,,,,,,,,,,,,,,,,,,,,,,,,,,,,,,,,,,,,/muse/elements/blink
2568-11-14 13:19:06.557,0.2760919268161679,-0.2529038594941825,0,1.095183008979876,0.8213029906782414,-0.04123649084806136,0,0.333912279533784,0.1680700584751904,-0.05740103586738445,0,0.6501038322770119,0.5141858484836801,-0.06572596962444203,0,0.420077467741845,0.8824204766379344,-0.3677398846536508,0,0.2677570402243146,338.8644688644688,803.8461538461539,745.8241758241759,736.959706959707,378.7545787545787,0.081055,0.073669,0.995422,-0.456085,-2.056122,-0.725250,564908.424908,112356336.996337,57293479.853480,81.341606,1,1,1,2,1,70.000000
2568-11-14 13:19:06.799,,,,,,,,,,,,,,,,,,,,,,,,,,,,,,,,,,,,,,,,,,/muse/elements/blink
2568-11-14 13:19:07.557,0.5480777879849101,0.182222045798355,0,0.8539102841971987,0.3519977938184146,-0.3235380447575629,0,0.806182298343976,0.5036885661638808,-0.04247767085620337,0,0.6580755738440736,0.845694268323864,0.004951564401232362,0,0.5571751376898519,0.8226201187359226,-0.3549123647382057,0,0.1792921299577278,1498.901098901099,803.040293040293,938.021978021978,839.7069597069598,816.3369963369963,0.099487,0.065063,0.999390,-0.336456,-3.043060,-1.772003,558461.538462,112355531.135531,57287032.967033,81.620804,1,1,1,1,1,70.000000
2568-11-14 13:19:08.024,,,,,,,,,,,,,,,,,,,,,,,,,,,,,,,,,,,,,,,,,,/muse/elements/blink
2568-11-14 13:19:08.567,0.5364663921260793,0.1777673623741587,0,0.9983695533244195,0.7918308135705115,0.03340185447938256,0,0.880420886952606,0.9926821188151942,0.4383171939457194,0,0.6839218768686625,0.8901629178618297,0.231439118509485,0,0.5547878564351603,0.9246060938633741,-0.0270852831868511,0,0.1683293476485981,65.67765567765568,805.0549450549451,815.934065934066,695.0549450549451,24.57875457875458,0.101440,0.045227,0.997559,0.560760,-0.971985,0.628052,556849.816850,112075091.575092,57408717.948718,81.327637,1,1,1,1,1,70.000000
2568-11-14 13:19:09.147,,,,,,,,,,,,,,,,,,,,,,,,,,,,,,,,,,,,,,,,,,/muse/elements/blink
2568-11-14 13:19:09.557,0.4737603833848592,0.5330540800104686,0,1.046771260935128,0.6850853397320689,0.4542965453488629,0,0.9442287284691117,0.9745603880512057,0.6905991139129622,0,0.6250659861825787,0.9983057783208192,0.7838034429114643,0,0.5635874647451286,0.997755015984947,0.5311542421741604,0,0.1498508618614907,1031.098901098901,793.3699633699634,813.919413919414,885.6410256410256,886.0439560439561,0.072815,0.065979,0.988586,-0.508423,-0.411224,5.944061,545567.765568,111791428.571429,58498241.758242,81.999313,1,1,1,1,1,70.000000
2568-11-14 13:19:10.457,,,,,,,,,,,,,,,,,,,,,,,,,,,,,,,,,,,,,,,,,,/muse/elements/blink
2568-11-14 13:19:10.561,0.5020683905687213,0.7751248386153314,0,1.332413987284937,0.404517492823877,0.4453059602145973,0,0.5992535040145106,0.8965592638651835,0.739297070655404,0,1.270103824168187,1.045404416955491,0.9173736477777767,0,1.568147817334757,0.9657319114427936,0.6205197392241203,0,1.082742692031405,1275.677655677656,792.967032967033,889.2673992673992,876.7765567765568,863.0769230769231,0.068604,0.061829,0.991760,1.966400,0.044861,12.075043,534285.714286,112358754.578755,59480586.080586,84.523712,1,1,1,1,1,70.000000
2568-11-14 13:19:11.558,1.5524218951925,0.5475999709326741,0,1.084127716332871,1.930400740739692,0.3616541366262714,0,0.9060658533821266,2.06376762149866,0.3035774770388796,0,1.384811054390388,1.287784218125868,0.9514271348729406,0,1.342127451024378,0.9605735714007647,0.6620521064744941,0,0.9301879040535508,586.6666666666666,808.2783882783883,811.9047619047619,773.2234432234433,517.3626373626374,0.056763,0.071289,0.996338,0.291595,-2.287903,-5.428162,542344.322344,111245054.945055,57642417.582418,87.576355,1,1,1,2,1,70.000000
2568-11-14 13:19:11.590,,,,,,,,,,,,,,,,,,,,,,,,,,,,,,,,,,,,,,,,,,/muse/elements/blink
2568-11-14 13:19:12.565,1.862840599056535,0.6702833804589166,0,1.138400985279575,1.669084654703577,0.2617106722861775,0,0.9345680836881977,1.724118405196472,0.3464982162081489,0,1.23610122298734,1.192611479616534,0.7491075932137339,0,0.9156174380727398,0.865592064740714,0.3863669405469515,0,0.6048330615603345,1502.124542124542,793.7728937728938,910.2197802197802,954.1391941391942,1362.307692307692,0.059448,0.075256,0.992859,-0.343933,-2.026215,0.104675,564102.564103,111646373.626374,57509450.549451,88.687668,1,1,1,2,1,70.000000
2568-11-14 13:19:12.897,,,,,,,,,,,,,,,,,,,,,,,,,,,,,,,,,,,,,,,,,,/muse/elements/blink
2568-11-14 13:19:13.427,,,,,,,,,,,,,,,,,,,,,,,,,,,,,,,,,,,,,,,,,,/muse/elements/blink
2568-11-14 13:19:13.557,1.862840599056535,0.951757779301634,0,1.206124411257308,1.669084654703577,0.2770671443808016,0,0.7114592518334941,1.724118405196472,0.1003028460181522,0,0.9802531581211158,1.192611479616534,-0.01765701478480383,0,0.7971530515112247,0.865592064740714,-0.2772133755905902,0,0.4391929812016358,925.5311355311355,811.5018315018315,916.6666666666667,817.1428571428571,686.5934065934066,0.059570,0.083130,1.000854,0.276642,-1.884155,-0.179443,568131.868132,111631868.131868,57179853.479853,89.970421,1,1,1,2,1,70.000000
2568-11-14 13:19:14.120,,,,,,,,,,,,,,,,,,,,,,,,,,,,,,,,,,,,,,,,,,/muse/elements/blink
2568-11-14 13:19:14.557,1.862840599056535,0.3608962323434011,0,1.206124411257308,1.669084654703577,0.2353240488187784,0,0.7114592518334941,1.724118405196472,0.1218890698846364,0,0.9802531581211158,1.192611479616534,-0.07254564952218473,0,0.7971530515112247,0.865592064740714,-0.3787005567050684,0,0.4391929812016358,1089.52380952381,802.2344322344322,908.2051282051282,862.6739926739926,801.4285714285714,0.061523,0.086975,0.998535,0.194397,-1.069183,0.059814,560073.260073,111656043.956044,57293479.853480,89.008224,1,2,1,2,2,70.000000
2568-11-14 13:19:15.342,,,,,,,,,,,,,,,,,,,,,,,,,,,,,,,,,,,,,,,,,,/muse/elements/blink
2568-11-14 13:19:15.557,0.9033943997525059,0.3762234468348017,0,0.6879225528742663,0.8365450817870841,0.08630951316439045,0,0.1744669268917976,0.9413908610582911,0.3514485983180014,0,0.9768014165709697,0.846084803484691,0.1318554269468503,0,0.494436578633232,0.7064218779488596,-0.4828744454516029,0,0.2071030999675923,1263.589743589744,794.5787545787546,871.5384615384615,882.4175824175825,1085.091575091575,0.062683,0.078979,0.991272,0.239258,-1.988831,-1.143951,568937.728938,111761611.721612,57604542.124542,89.008224,1,1,1,2,1,70.000000
2568-11-14 13:19:16.554,,,,,,,,,,,,,,,,,,,,,,,,,,,,,,,,,,,,,,,,,,/muse/elements/blink
2568-11-14 13:19:16.569,0.8391525223912384,0.5398289630398089,0,0.7214099166059452,0.7588361624814896,0.2846933123296739,0,0.4840131695022628,0.9566404865723606,0.4001354268872014,0,1.138817841625658,0.7937725242109335,0.1969819447529626,0,0.6970588004025061,0.750771528710056,-0.3313186154681101,0,0.1813868959775524,583.8461538461538,796.1904761904763,869.1208791208792,793.3699633699634,283.6630036630037,0.055725,0.075439,0.996582,-0.785065,-2.534637,-0.478516,559267.399267,111841391.941392,57519926.739927,87.974312,1,1,1,2,1,70.000000
2568-11-14 13:19:17.564,0.5038362603389478,0.1615462033481116,0,0.7670660798057335,0.7483701052114923,0.2575503841709568,0,0.4982717892076748,0.819647959618255,0.2958404619114624,0,0.8537619810913125,0.7866022198308202,0.08999115753902505,0,0.4874997393494971,0.8445907498891271,-0.3395523243196236,0,0.02475302058189261,1550.476190476191,801.8315018315019,944.0659340659341,920.2930402930403,1068.974358974359,0.066101,0.077332,0.998718,-0.246735,-2.317810,0.194397,558461.538462,111872820.512821,57631135.531136,86.701736,1,1,1,2,1,70.000000
2568-11-14 13:19:17.767,,,,,,,,,,,,,,,,,,,,,,,,,,,,,,,,,,,,,,,,,,/muse/elements/blink
2568-11-14 13:19:18.557,0.5670237735672095,-0.01773903824534369,0,0.4469882562870552,0.9264919931759041,0.01982194147259333,0,0.3237499153477447,0.7284002247690914,0.2649258182394791,0,0.5056784293220783,0.7661996286509809,0.137538325120095,0,0.451688287801193,0.9033742323035753,-0.2922812390022246,0,-0.01101387715475606,1003.296703296703,798.2051282051282,866.7032967032967,817.5457875457876,850.5860805860806,0.067871,0.068115,0.999573,-0.044861,-1.899109,-0.418701,560073.260073,111867179.487179,57538461.538462,86.000168,1,1,1,2,1,70.000000
2568-11-14 13:19:19.085,,,,,,,,,,,,,,,,,,,,,,,,,,,,,,,,,,,,,,,,,,/muse/elements/blink
2568-11-14 13:19:19.558,0.6694103159860729,0.1270151558254069,0,0.2773770210226874,0.8142359000449756,0.04501985194412307,0,0.1675164483707909,0.9068463870260057,0.2729021964843696,0,0.5219919803006979,0.8875171599404195,0.05596924409919378,0,0.3314902424246014,0.8999518479353927,-0.4879658412454641,0,0.02903753414658449,0,799.4139194139194,832.4542124542124,666.8498168498169,51.97802197802198,0.057739,0.068237,0.998901,-0.643005,-1.786957,0.441132,558461.538462,111759194.139194,57518315.018315,86.064514,1,1,1,2,1,70.000000
2568-11-14 13:19:20.215,,,,,,,,,,,,,,,,,,,,,,,,,,,,,,,,,,,,,,,,,,/muse/elements/blink
2568-11-14 13:19:20.557,0.3425769460262575,0.2100572227826506,0,0.4834499414996288,0.8775608369658852,-0.02532972638389677,0,0.1848207962215367,0.8537867289933638,0.2066895629637815,0,0.452346338893159,0.8326949249668508,-0.006803003292309694,0,0.4606333116791568,0.940816458219876,-0.2288339074021943,0,0.1821679090466778,1541.611721611722,801.8315018315019,960.989010989011,922.7106227106227,998.0586080586081,0.069031,0.072693,0.996826,0.590668,-1.271057,-0.276642,572161.172161,111868791.208791,57577948.717949,84.161797,1,1,1,2,1,70.000000
2568-11-14 13:19:21.441,,,,,,,,,,,,,,,,,,,,,,,,,,,,,,,,,,,,,,,,,,/muse/elements/blink
2568-11-14 13:19:21.557,0.1318719004552061,0.3638456590950782,0,0.6191349996144672,0.71679703833655,0.08570989313719504,0,0.3264531164416099,0.5463946940743035,0.1712378815954179,0,0.3798765500351978,0.8724923767782284,0.02841935694198821,0,0.5332811176406902,0.9798043158219925,-0.2219829593895467,0,0.3260554253367189,333.2234432234432,799.4139194139194,815.1282051282052,708.7545787545788,485.5311355311355,0.070984,0.069397,0.996643,-0.418701,-2.572021,0.351410,553626.373626,112529597.069597,60261465.201465,83.917404,1,1,1,2,1,70.000000
2568-11-14 13:19:21.707,,,,,,,,,,,,,,,,,,,,,,,,,,,,,,,,,,,,,,,,,,/muse/elements/jaw_clench
2568-11-14 13:19:22.557,0.1318719004552061,0.9339109776541978,0,0.7726088062002251,0.71679703833655,0.3747976625276208,0,0.5217947450612669,0.5463946940743035,0.2998974798324816,0,0.4547581309990799,0.8724923767782284,0.3288891647966667,0,0.7570328729498846,0.9798043158219925,-0.04756483649287172,0,0.3784333582542715,1584.725274725275,803.4432234432235,949.3040293040293,929.1575091575091,974.2857142857143,0.073303,0.072266,0.995117,-0.089722,-1.861725,-0.134583,564908.424908,111700366.300366,58799633.699634,83.156013,1,2,1,2,1,70.000000
2568-11-14 13:19:22.752,,,,,,,,,,,,,,,,,,,,,,,,,,,,,,,,,,,,,,,,,,/muse/elements/blink
2568-11-14 13:19:23.557,0.4770740109777413,0.5607597376025375,0,0.637907519757969,0.7941594424456104,0.325174379755573,0,0.4217357398896753,0.7068174745219071,0.5211627787391995,0,0.5172966834565996,0.8898720018578223,0.4141555254093914,0,0.5619022548641721,0.9905737058289487,0.1078805856368284,0,0.4232803377655047,961.7948717948718,795.3846153846154,885.6410256410256,811.0989010989011,965.0183150183151,0.068115,0.068176,0.999878,0.328979,-1.981354,-0.762634,568937.728938,111652820.512821,58461172.161172,81.142738,1,2,1,2,1,70.000000
2568-11-14 13:19:23.958,,,,,,,,,,,,,,,,,,,,,,,,,,,,,,,,,,,,,,,,,,/muse/elements/blink
2568-11-14 13:19:24.557,0.07125232048047224,-0.1294413550325571,0,0.3317380804537713,0.4163821503750811,-0.1499293625020695,0,0.2556491653716704,0.6036314990169389,0.5099814872431329,0,0.4967769169736688,0.9642900480161617,0.3143118393612713,0,0.4405888817579314,1.022393672138137,-0.0008645096553825007,0,0.3244326798923066,0.8058608058608059,793.7728937728938,626.5567765567765,662.014652014652,278.4249084249084,0.067200,0.070190,0.998230,-0.074768,-1.869202,-0.291595,572967.032967,111635897.435897,58485347.985348,79.509682,1,2,1,2,1,70.000000
2568-11-14 13:19:25.176,,,,,,,,,,,,,,,,,,,,,,,,,,,,,,,,,,,,,,,,,,/muse/elements/blink
2568-11-14 13:19:25.557,0.9837923881131929,0.007338061096813687,0,0.5478316143026885,1.345413587076609,-0.1517464944621826,0,0.4113638093858086,1.757264944860999,0.2453031053338563,0,0.7317041035864174,1.083658422357711,0.2873635975487622,0,0.5287937088966052,0.9387063911330573,0.02527549459209098,0,0.2893509649017103,768.3882783882784,794.981684981685,870.7326007326008,803.4432234432235,392.8571428571429,0.066833,0.078430,1.004395,-0.254211,-1.614990,-0.358887,568937.728938,111579487.179487,58289523.809524,79.509682,1,2,1,2,1,70.000000
2568-11-14 13:19:26.388,,,,,,,,,,,,,,,,,,,,,,,,,,,,,,,,,,,,,,,,,,/muse/elements/blink
2568-11-14 13:19:26.557,1.179479686074372,0.3306651866195873,0,0.4098758494702015,1.328477786008246,-0.09412443677992691,0,0.294972976813391,1.874729319054608,0.284394785156745,0,0.8350247742605572,1.236637330438144,0.03302766406522716,0,0.5891808030092484,0.9753668181746992,-0.1292116953547212,0,0.2703774299108522,305.4212454212454,799.8168498168499,759.5238095238095,718.021978021978,660.8058608058608,0.067749,0.063354,0.995056,-1.480408,-4.710388,-0.052338,560073.260073,111605274.725275,58196849.816850,79.146179,1,2,1,2,1,70.000000
2568-11-14 13:19:27.557,1.305604791220707,0.2265440228334408,0,0.3332790894422275,1.273784471039298,-0.02876380422131368,0,0.5577081224629163,1.603458528768498,0.556250705178627,0,0.6809000844273357,1.205612452590807,0.1078221350352982,0,0.4779224122559881,0.9996147864013643,-0.0419847431315418,0,0.2821472982335563,160.7692307692308,795.3846153846154,545.9706959706959,711.5750915750916,472.6373626373626,0.063660,0.058716,0.998535,0.022430,-2.467346,-0.306549,564908.424908,111424761.904762,58220219.780220,78.417740,1,2,1,2,1,70.000000
2568-11-14 13:19:27.623,,,,,,,,,,,,,,,,,,,,,,,,,,,,,,,,,,,,,,,,,,/muse/elements/blink
2568-11-14 13:19:28.557,1.588444260311076,0.05691168768369843,0,0.1083423510596021,1.288114996898314,0.129447726825754,0,0.2879397664095423,1.352701592026242,0.5463259744649354,0,0.7747630613294447,1.169168161718621,0.1316597649543754,0,0.6142300122235135,1.030687431290811,0.006347767772977447,0,0.3876556721887098,1396.153846153846,800.6227106227107,949.3040293040293,901.3553113553114,802.2344322344322,0.056885,0.053284,0.994446,-0.269165,-1.435547,0.702820,556849.816850,111320000.000000,58068717.948718,79.118179,1,2,1,1,1,70.000000
2568-11-14 13:19:28.842,,,,,,,,,,,,,,,,,,,,,,,,,,,,,,,,,,,,,,,,,,/muse/elements/blink
2568-11-14 13:19:29.557,0.1307978068309039,-0.1052574547725882,0,-0.1582819899516421,0.9921527094552057,-0.0902606129373381,0,0.1721871034890198,1.20126607104787,0.3026124719735847,0,0.5712308473822103,1.037002594063024,-0.1025673612248781,0,0.635198396458137,1.085732869224241,-0.1993263957486502,0,0.2291799836350858,9.670329670329672,795.7875457875458,785.3113553113553,690.6227106227107,135.7875457875458,0.066040,0.054626,0.994385,-0.104675,-1.742096,-0.545807,558461.538462,111419926.739927,57901904.761905,80.661232,1,2,1,2,1,70.000000
2568-11-14 13:19:30.060,,,,,,,,,,,,,,,,,,,,,,,,,,,,,,,,,,,,,,,,,,/muse/elements/blink
2568-11-14 13:19:30.557,0.2041159441160204,-0.04109095946358533,0,-0.2647337343995894,0.9960051122417491,-0.1921092107796371,0,0.07474128156498062,1.071577505203993,0.2208610427157446,0,0.2114790442973137,1.109992951805655,0.05672023544463573,0,0.5967018341008509,1.086006319036794,-0.1314017670578815,0,0.06868433068089015,869.1208791208792,792.5641025641025,780.4761904761905,815.1282051282052,520.1831501831502,0.075745,0.058105,1.001770,0.097198,-1.652374,-0.904694,555238.095238,111452161.172161,57967985.347985,81.018303,1,2,1,1,1,70.000000
2568-11-14 13:19:31.281,,,,,,,,,,,,,,,,,,,,,,,,,,,,,,,,,,,,,,,,,,/muse/elements/blink
2568-11-14 13:19:31.556,0.4320282688300179,0.1143596092455765,0,0.1634516979763012,0.6142274110899895,0.2679222274979634,0,0.08163901104542703,1.000268216039481,0.3289300270842407,0,0.4101769647363261,0.9988534766072023,0.1389002647680666,0,0.6220866137165035,1.020035687535958,-0.1223517128867481,0,0.08672093989329613,1543.223443223443,805.0549450549451,977.5091575091575,923.919413919414,1052.857142857143,0.075439,0.051575,0.999268,-0.396271,-1.824341,-0.142059,566520.146520,111685054.945055,58135604.395604,80.850227,1,2,1,2,1,70.000000
2568-11-14 13:19:32.495,,,,,,,,,,,,,,,,,,,,,,,,,,,,,,,,,,,,,,,,,,/muse/elements/blink
2568-11-14 13:19:32.557,0.4836326299061811,0.2022367137797294,0,0.3822644195077811,0.5722344781225558,0.1300913574145806,0,0.3738327611253728,1.01472087422611,0.4155086557964542,0,0.6068442276891644,1.04538765404172,0.3950810481233644,0,0.6865958617421253,1.005721652981131,0.1226499864690746,0,0.2538748886621789,236.9230769230769,790.1465201465202,811.9047619047619,703.1135531135532,257.0695970695971,0.055420,0.058350,0.996643,0.142059,-1.614990,-0.433655,574578.754579,111714871.794872,58179120.879121,78.612007,1,2,1,2,1,70.000000
2568-11-14 13:19:32.691,,,,,,,,,,,,,,,,,,,,,,,,,,,,,,,,,,,,,,,,,,/muse/elements/jaw_clench
2568-11-14 13:19:33.105,,,,,,,,,,,,,,,,,,,,,,,,,,,,,,,,,,,,,,,,,,/muse/elements/jaw_clench
2568-11-14 13:19:33.559,0.4329854155195172,0.229115802649638,0,0.2633153636129631,0.6918369239069245,0.3181677020226277,0,0.4297440266538273,0.6372575978364671,0.3411784509303782,0,0.7747136064996121,0.9747644757301154,0.6971596967175971,0,0.693947586626559,0.937911761790693,0.324068561332568,0,0.5474248779362685,1650,807.0695970695971,939.6336996336996,946.0805860805862,1256.336996336996,0.065857,0.059021,0.998230,-0.029907,-2.003784,0.755157,564908.424908,111638315.018315,58200073.260073,76.937599,1,2,1,1,1,70.000000
2568-11-14 13:19:33.632,,,,,,,,,,,,,,,,,,,,,,,,,,,,,,,,,,,,,,,,,,/muse/elements/blink
2568-11-14 13:19:34.565,0.4329854155195172,0.09245062441726319,0,0.08075357206931688,0.6918369239069245,-0.04130146402416694,0,0.2742513561603712,0.6372575978364671,-0.07217268181168622,0,0.9253152544730727,0.9747644757301154,0.3470059793135363,0,0.5717055382476399,0.937911761790693,0.3064797580708837,0,0.7015659443038029,165.6043956043956,809.0842490842491,747.032967032967,701.9047619047619,185.3479853479853,0.067261,0.061279,1.002808,0.119629,-1.585083,-0.134583,565714.285714,111143516.483516,57963150.183150,76.834343,1,2,1,1,1,70.000000
2568-11-14 13:19:34.834,,,,,,,,,,,,,,,,,,,,,,,,,,,,,,,,,,,,,,,,,,/muse/elements/blink
2568-11-14 13:19:35.559,0.2775491390188804,0.3704528178525445,0,0.3123473842179851,1.295550615074422,0.1394780605190701,0,0.1287708825065777,0.8592064822713409,0.179484464533617,0,0.7105931204905469,0.8806778911978068,0.284563631576365,0,0.5528919916311218,1.047660021122147,0.1707844440509163,0,0.4306950943148911,1375.604395604396,807.0695970695971,904.5787545787546,904.981684981685,958.974358974359,0.057190,0.062683,1.002380,-0.201874,-1.510315,0.082245,560879.120879,110996849.816850,57936556.776557,78.156631,1,2,1,1,1,70.000000
2568-11-14 13:19:36.150,,,,,,,,,,,,,,,,,,,,,,,,,,,,,,,,,,,,,,,,,,/muse/elements/blink
2568-11-14 13:19:36.557,0.4252963409909421,0.2409149356598272,0,0.4194679549553755,0.9592540419101619,0.07806914933117169,0,0.2239106072130103,0.674243417938438,0.3391097500550602,0,0.762120321440835,0.8247018340087237,0.2855705521568709,0,0.3363328674516271,1.018966625176829,-0.06347368650451699,0,0.2081938295663123,1347.399267399268,792.1611721611722,908.6080586080586,881.2087912087912,1120.14652014652,0.062134,0.061584,0.999878,-0.044861,-1.943970,0.127106,568131.868132,111079047.619048,58016336.996337,78.253983,1,2,1,1,1,70.000000
2568-11-14 13:19:37.380,,,,,,,,,,,,,,,,,,,,,,,,,,,,,,,,,,,,,,,,,,/muse/elements/blink
2568-11-14 13:19:37.558,0.3105737794579306,0.1616840147773553,0,0.2185751682970137,0.9200824604710139,0.2026030892494024,0,0.3116334979958875,0.6856198769786829,0.2588098935970322,0,0.6294643252774856,0.8018226348822538,0.1408057009509413,0,0.2445598435784648,0.9938995086751765,-0.1591556401020545,0,0.08522905116313619,677.3260073260074,799.0109890109891,815.1282051282052,788.9377289377289,402.1245421245421,0.061157,0.068970,1.001465,0.254211,-1.637421,0.216827,560073.260073,111299047.619048,58191208.791209,76.872765,1,2,1,1,1,70.000000
2568-11-14 13:19:38.557,0.2748899894393301,0.3413990381144957,0,0.1219116918763281,0.8873383318633795,0.1475782590554544,0,0.1538271629974205,0.8439544076417844,0.137363501597049,0,0.4143369395875569,0.8115339009510645,0.2270085684314002,0,0.2910641338516635,0.9895980991373421,-0.0390861950910811,0,0.01340586206855336,1647.179487179487,797.8021978021978,978.3150183150184,944.4688644688645,1227.728937728938,0.056824,0.067505,0.995850,-0.284119,-2.153320,-0.598145,556849.816850,111417509.157509,58150109.890110,75.202171,1,2,1,1,1,70.000000
2568-11-14 13:19:38.583,,,,,,,,,,,,,,,,,,,,,,,,,,,,,,,,,,,,,,,,,,/muse/elements/blink
2568-11-14 13:19:39.557,0.4885794148648111,0.3004689570472835,0,-0.00258891149533935,0.9592750106358022,0.1599851374304077,0,0.05126522774676794,0.8515031923859355,0.4388754826734636,0,0.7213529651112776,0.7627103081528083,0.2743785716393884,0,0.347994345810043,0.9986290452746928,-0.002378122391881309,0,0.1867058778712659,813.5164835164835,802.2344322344322,853.0036630036631,787.7289377289378,771.2087912087912,0.059753,0.067749,0.994995,0.089722,-1.114044,-0.014954,564102.564103,111394945.054945,58039706.959707,73.723228,1,2,1,1,1,70.000000
2568-11-14 13:19:39.816,,,,,,,,,,,,,,,,,,,,,,,,,,,,,,,,,,,,,,,,,,/muse/elements/blink
2568-11-14 13:19:40.557,0.897789440378101,0.3073842507947389,0,0.2791166575155913,1.201104802326307,0.1138249226074481,0,0.3772029463526997,1.267858611754815,0.6241490678755389,0,0.7939092537299713,0.95952531125476,0.234612388349875,0,0.4001888557404045,1.063764611987373,0.002409427105345157,0,0.1991943583651671,0,796.1904761904763,774.8351648351648,648.3150183150183,49.56043956043956,0.062317,0.068481,1.000488,0.029907,-1.929016,0.089722,556043.956044,111211208.791209,58005054.945055,73.627655,1,2,1,1,1,70.000000
2568-11-14 13:19:41.130,,,,,,,,,,,,,,,,,,,,,,,,,,,,,,,,,,,,,,,,,,/muse/elements/blink
2568-11-14 13:19:41.563,1.058115233652801,0.3023186352049891,0,0.9507075929009957,1.369837643281617,0.0135933296758788,0,0.9413282160572476,1.370254643878829,0.5071895548265865,0,0.8296421889940681,0.9669134117530729,0.3330460629536515,0,0.5430195173509312,1.008301035161643,-0.01717106848995108,0,0.06638428751961178,1424.358974358974,804.2490842490843,999.6703296703297,861.4652014652015,1093.956043956044,0.064697,0.071533,1.003967,-0.216827,-2.542114,0.171967,561684.981685,111208791.208791,57950256.410256,75.216751,1,2,1,2,1,70.000000
2568-11-14 13:19:42.245,,,,,,,,,,,,,,,,,,,,,,,,,,,,,,,,,,,,,,,,,,/muse/elements/blink
2568-11-14 13:19:42.557,1.057461113060389,0.2052138576109843,0,0.9626194721140713,1.337739481740936,0.04425991581849088,0,0.9508597909750216,1.41802717838885,0.05493946794580935,0,1.03081621486071,0.9392985767245869,0.2277717404544087,0,0.6055193837241493,0.9619850230492814,-0.1657460935102773,0,0.174601793980719,248.6080586080586,796.5934065934066,789.7435897435897,671.6849816849817,389.2307692307692,0.065308,0.063721,0.997925,-0.485992,-2.048645,-0.291595,556043.956044,111195091.575092,57930915.750916,76.186684,1,2,1,1,1,70.000000
2568-11-14 13:19:43.465,,,,,,,,,,,,,,,,,,,,,,,,,,,,,,,,,,,,,,,,,,/muse/elements/blink
2568-11-14 13:19:43.568,0.8907367343974614,0.07244913801360636,0,1.163557127149171,1.07891795025548,0.1620782722543656,0,1.040152235488722,1.230484593660479,-0.0325215878493175,0,1.200355498818683,0.8811894823732006,0.1817319349181601,0,0.7672487256179279,0.9938908344300553,-0.2705294510121605,0,0.1404108213089467,1635.091575091575,795.7875457875458,927.5457875457876,968.6446886446887,1002.893772893773,0.071533,0.067017,0.997498,-0.052338,-1.181335,0.284119,563296.703297,111465054.945055,57942197.802198,76.193893,1,2,1,2,1,70.000000
