TimeStamp,Delta_TP9,Delta_AF7,Delta_AF8,Delta_TP10,Theta_TP9,Theta_AF7,Theta_AF8,Theta_TP10,Alpha_TP9,Alpha_AF7,Alpha_AF8,Alpha_TP10,Beta_TP9,Beta_AF7,Beta_AF8,Beta_TP10,Gamma_TP9,Gamma_AF7,Gamma_AF8,Gamma_TP10,RAW_TP9,RAW_AF7,RAW_AF8,RAW_TP10,AUX_RIGHT,Accelerometer_X,Accelerometer_Y,Accelerometer_Z,Gyro_X,Gyro_Y,Gyro_Z,PPG_Ambient,PPG_IR,PPG_Red,Heart_Rate,HeadBandOn,HSI_TP9,HSI_AF7,HSI_AF8,HSI_TP10,Battery,Elements
2568-11-14 12:05:55.336,,,,,,,,,,,,,,,,,,,,,,,,,,,,,,,,,,,,,,,,,,/muse/event/connected Muse-2260
2568-11-14 12:05:55.453,,,,,,,,,,,,,,,,,,,,,,,,,,,,,,,,,,,,,,,,,,/muse/elements/blink
2568-11-14 12:05:55.496,,,,,,,,,,,,,,,,,,,,,,,,,,,,,,,,,,,,,,,,,,/muse/elements/blink
2568-11-14 12:05:56.181,,,,,,,,,,,,,,,,,,,,,,,,,,,,,,,,,,,,,,,,,,/muse/elements/blink
2568-11-14 12:05:56.348,0,0,0.8195210879951275,0,0,0,0.564970410841668,0,0,0,0.7103760265975669,0,0,0,0.6784198673433196,0,0,0,0.2114157915957891,0,955.7509157509157,1160.43956043956,808.2783882783883,419.047619047619,537.9120879120879,-0.130798,0.129395,0.986328,0.044861,-0.904694,-0.598145,409377.289377,122222490.842491,35328131.868132,67.742805,1,2,2,1,2,50.000000
2568-11-14 12:05:57.335,0,0,0.4905067801367949,0,0,0,0.4228944970813768,0,0,0,0.7056470004421385,0,0,0,0.5887719889832551,0,0,0,0.3300036853302918,0,0,0,735.3479853479854,180.1098901098901,452.4908424908425,-0.132385,0.121704,0.985107,0.119629,-1.323395,0.007477,409377.289377,122262783.882784,35348278.388278,68.299332,1,2,2,1,2,50.000000
2568-11-14 12:05:57.494,,,,,,,,,,,,,,,,,,,,,,,,,,,,,,,,,,,,,,,,,,/muse/elements/blink
2568-11-14 12:05:58.336,0,0,0.5426993557721789,0,0,0,0.5325525707155276,0,0,0,0.5116677357184934,0,0,0,0.616554678000678,0,0,0,0.4157661524655383,0,229.2673992673993,161.5750915750916,755.8974358974359,205.4945054945055,678.1318681318681,-0.137329,0.119690,0.983765,0.186920,-0.762634,0.426178,408571.428571,122307106.227106,35384542.124542,68.674744,1,2,2,1,2,50.000000
2568-11-14 12:05:58.922,,,,,,,,,,,,,,,,,,,,,,,,,,,,,,,,,,,,,,,,,,/muse/elements/blink
2568-11-14 12:05:59.229,,,,,,,,,,,,,,,,,,,,,,,,,,,,,,,,,,,,,,,,,,/muse/elements/jaw_clench
2568-11-14 12:05:59.336,0,0,0.7566184252210473,0,0,0,0.4718803695956507,0,0,0,0.6050838338996127,0,0,0,0.5811363333121246,0,0,0,0.2977952125308061,0,1267.619047619048,1466.263736263736,819.1575091575091,1344.981684981685,894.908424908425,-0.133240,0.120361,0.982666,0.508423,-1.973877,0.067291,410183.150183,122298241.758242,35384542.124542,68.458733,1,2,2,1,2,50.000000
2568-11-14 12:05:59.425,,,,,,,,,,,,,,,,,,,,,,,,,,,,,,,,,,,,,,,,,,/muse/elements/jaw_clench
2568-11-14 12:06:00.035,,,,,,,,,,,,,,,,,,,,,,,,,,,,,,,,,,,,,,,,,,/muse/elements/jaw_clench
2568-11-14 12:06:00.274,,,,,,,,,,,,,,,,,,,,,,,,,,,,,,,,,,,,,,,,,,/muse/elements/blink
2568-11-14 12:06:00.336,0,0,0.8200986969421007,0,0,0,0.3378268434304282,0,0,0,0.5976829663798733,0,0,0,0.5956082033240997,0,0,0,0.2581139760645634,0,158.3516483516484,297.7655677655678,764.3589743589744,425.8974358974359,807.0695970695971,-0.147949,0.122131,0.985596,-0.201874,-1.943970,-0.560760,409377.289377,122220879.120879,35300732.600733,67.913246,1,2,2,1,2,50.000000
2568-11-14 12:06:00.361,,,,,,,,,,,,,,,,,,,,,,,,,,,,,,,,,,,,,,,,,,/muse/elements/jaw_clench
2568-11-14 12:06:00.645,,,,,,,,,,,,,,,,,,,,,,,,,,,,,,,,,,,,,,,,,,/muse/elements/jaw_clench
2568-11-14 12:06:01.336,0,0,0.7665622593584492,0,0,0,0.2456786431731343,0,0,0,0.5152703448624703,0,0,0,0.6212575021744836,0,0,0,0.2421355927510977,0,0,0,723.2600732600732,87.43589743589745,529.4505494505495,-0.133911,0.125854,0.985962,-0.089722,-0.314026,0.403748,410989.010989,122075018.315018,35303150.183150,67.867920,1,2,2,1,2,50.000000
2568-11-14 12:06:01.339,,,,,,,,,,,,,,,,,,,,,,,,,,,,,,,,,,,,,,,,,,/muse/elements/jaw_clench
2568-11-14 12:06:01.666,,,,,,,,,,,,,,,,,,,,,,,,,,,,,,,,,,,,,,,,,,/muse/elements/blink
2568-11-14 12:06:02.335,0,0,0.1867067914403459,0,0,0,0.1034080737416841,0,0,0,0.5140911749057046,0,0,0,0.6283394682522779,0,0,0,0.3685814798146987,0,1559.74358974359,1650,830.0366300366301,1326.043956043956,625.3479853479854,-0.146729,0.122864,0.981689,0.456085,0.598145,0.575714,410183.150183,122144322.344322,35305567.765568,67.750862,1,2,2,1,2,50.000000
2568-11-14 12:06:03.074,,,,,,,,,,,,,,,,,,,,,,,,,,,,,,,,,,,,,,,,,,/muse/elements/blink
2568-11-14 12:06:03.336,0,0,0.3148289763463472,0,0,0,0.2048552125192162,0,0,0,0.508987516963481,0,0,0,0.5823347586154769,0,0,0,0.2834398069510862,0,391.6483516483516,767.5824175824176,787.3260073260074,833.6630036630037,1049.230769230769,-0.109619,0.118896,0.988525,-0.014954,1.256104,-0.515900,411794.871795,122056483.516484,35295091.575092,67.324776,1,2,2,1,2,50.000000
2568-11-14 12:06:04.278,,,,,,,,,,,,,,,,,,,,,,,,,,,,,,,,,,,,,,,,,,/muse/elements/blink
2568-11-14 12:06:04.335,0,0,0.4496903838901431,0,0,0,0.06191076298919387,0,0,0,0.4041365677619064,0,0,0,0.5580769293647529,0,0,0,0.3935804584271411,0,0,0,736.1538461538462,402.9304029304029,617.2893772893773,-0.133728,0.120483,0.986755,0.650482,-2.616882,0.485992,409377.289377,122177362.637363,35320879.120879,67.247200,1,2,2,1,2,50.000000
2568-11-14 12:06:05.153,,,,,,,,,,,,,,,,,,,,,,,,,,,,,,,,,,,,,,,,,,/muse/elements/jaw_clench
2568-11-14 12:06:05.341,0,0,0.3580060596888587,0,0,0,-0.06426457022466969,0,0,0,0.3850658016212986,0,0,0,0.669493731751678,0,0,0,0.2015903843611924,0,1650,1650,857.8388278388279,1650,820.3663003663004,-0.138062,0.120422,0.980103,-0.448608,-0.814972,-1.450500,409377.289377,122025860.805861,35305567.765568,67.670448,1,2,2,1,2,50.000000
2568-11-14 12:06:05.764,,,,,,,,,,,,,,,,,,,,,,,,,,,,,,,,,,,,,,,,,,/muse/elements/blink
2568-11-14 12:06:06.114,,,,,,,,,,,,,,,,,,,,,,,,,,,,,,,,,,,,,,,,,,/muse/elements/jaw_clench
2568-11-14 12:06:06.345,0,0,0.492564819857246,0,0,0,0.05303325107778283,0,0,0,0.3716211782019777,0,0,0,0.7043102335613041,0,0,0,0.3180376836402594,0,1064.945054945055,1380.842490842491,826.4102564102565,1306.703296703297,796.5934065934066,-0.148376,0.115051,0.981750,0.396271,-1.719666,0.829926,410183.150183,122141904.761905,35311208.791209,67.826660,1,2,2,1,2,50.000000
2568-11-14 12:06:07.070,,,,,,,,,,,,,,,,,,,,,,,,,,,,,,,,,,,,,,,,,,/muse/elements/blink
2568-11-14 12:06:07.247,,,,,,,,,,,,,,,,,,,,,,,,,,,,,,,,,,,,,,,,,,/muse/elements/jaw_clench
2568-11-14 12:06:07.341,0,0,0.4012496295575832,0,0,0,0.08565163309077277,0,0,0,0.4962189221274192,0,0,0,0.619396337196176,0,0,0,0.4054011870336801,0,1053.663003663004,708.7545787545788,794.981684981685,572.5641025641025,651.941391941392,-0.152161,0.120605,0.978394,0.284119,-1.585083,0.583191,410989.010989,122071794.871795,35312820.512821,67.765862,1,2,2,1,2,50.000000
2568-11-14 12:06:08.193,,,,,,,,,,,,,,,,,,,,,,,,,,,,,,,,,,,,,,,,,,/muse/elements/jaw_clench
2568-11-14 12:06:08.340,0,0,0.348789797627447,0,0,0,-0.1101900473845979,0,0,0,0.4562779102001997,0,0,0,0.585651869320274,0,0,0,0.3189520652321178,0,1650,1650,832.8571428571429,1631.062271062271,759.92673992674,-0.169250,0.117798,0.982422,0.037384,-1.532745,0.179443,407765.567766,121952527.472527,35238681.318681,67.703377,1,2,2,1,2,50.000000
2568-11-14 12:06:08.368,,,,,,,,,,,,,,,,,,,,,,,,,,,,,,,,,,,,,,,,,,/muse/elements/blink
2568-11-14 12:06:08.478,,,,,,,,,,,,,,,,,,,,,,,,,,,,,,,,,,,,,,,,,,/muse/elements/jaw_clench
2568-11-14 12:06:08.780,,,,,,,,,,,,,,,,,,,,,,,,,,,,,,,,,,,,,,,,,,/muse/elements/jaw_clench
2568-11-14 12:06:09.335,0,0,0.2821304398442446,0,0,0,0.2792133623566836,0,0,0,0.5635560301719504,0,0,0,0.5801334348412351,0,0,0,0.26199878884229,0,1358.278388278388,1470.29304029304,810.6959706959707,1480.3663003663,895.3113553113553,-0.162170,0.125671,0.985779,0.291595,-1.629944,0.209351,409377.289377,121748644.688645,35167765.567766,67.162804,1,2,2,1,2,50.000000
2568-11-14 12:06:09.613,,,,,,,,,,,,,,,,,,,,,,,,,,,,,,,,,,,,,,,,,,/muse/elements/blink
2568-11-14 12:06:10.311,,,,,,,,,,,,,,,,,,,,,,,,,,,,,,,,,,,,,,,,,,/muse/elements/blink
2568-11-14 12:06:10.345,0,0,0.1717484200636441,0,0,0,0.3366348703658759,0,0,0,0.6481872201174789,0,0,0,0.7280164696859199,0,0,0,0.6264128550676847,0,1625.421245421245,1501.721611721612,833.2600732600733,1311.941391941392,736.959706959707,-0.163574,0.138245,0.974243,0.134583,-1.009369,-0.650482,410989.010989,121755897.435897,35191135.531136,67.141006,1,2,2,1,2,50.000000
2568-11-14 12:06:11.337,0,0,0.6867704292601761,0,0,0,0.4089986663813514,0,0,0,0.6437728873631083,0,0,0,0.7290366918594553,0,0,0,0.5397794054965387,0,0,0,732.1245421245421,0,396.0805860805861,-0.171082,0.126038,0.974976,-0.366364,-1.637421,-1.091614,410183.150183,121809084.249084,35226593.406593,67.009895,1,2,2,1,2,50.000000
2568-11-14 12:06:11.641,,,,,,,,,,,,,,,,,,,,,,,,,,,,,,,,,,,,,,,,,,/muse/elements/blink
2568-11-14 12:06:11.641,,,,,,,,,,,,,,,,,,,,,,,,,,,,,,,,,,,,,,,,,,/muse/elements/jaw_clench
2568-11-14 12:06:12.335,0,0,0.6914341397132019,0,0,0,0.2310094067933831,0,0,0,0.5552454488915125,0,0,0,0.7299152860510562,0,0,0,0.4343539689018849,0,1568.205128205128,1386.080586080586,840.5128205128206,1176.153846153846,735.7509157509157,-0.176697,0.125244,0.981323,0.299072,-1.547699,0.545807,410183.150183,121885641.025641,35259633.699634,66.705940,1,2,2,1,2,50.000000
2568-11-14 12:06:12.639,,,,,,,,,,,,,,,,,,,,,,,,,,,,,,,,,,,,,,,,,,/muse/elements/blink
2568-11-14 12:06:13.335,0,0,0.4630174892048432,0,0,0,-0.04138801840809801,0,0,0,0.6592270577196123,0,0,0,0.5824822560864699,0,0,0,0.356119927135669,0,1650,1650,842.5274725274726,1650,888.0586080586081,-0.160950,0.122009,0.975769,0.351410,-1.293488,0.695343,409377.289377,121884835.164835,35247545.787546,66.869995,1,2,2,1,2,50.000000
2568-11-14 12:06:13.965,,,,,,,,,,,,,,,,,,,,,,,,,,,,,,,,,,,,,,,,,,/muse/elements/blink
2568-11-14 12:06:14.335,0,0,0.4168208408961018,0,0,0,0.2201192835743444,0,0,0,0.625467221995929,0,0,0,0.4927021099348221,0,0,0,0.3768079372006077,0,333.2234432234432,756.7032967032967,772.014652014652,673.2967032967033,759.5238095238095,-0.166138,0.128967,0.979553,-0.530853,-1.061707,-0.889740,409377.289377,121977509.157509,35289450.549451,66.777344,1,2,2,1,2,50.000000
2568-11-14 12:06:15.185,,,,,,,,,,,,,,,,,,,,,,,,,,,,,,,,,,,,,,,,,,/muse/elements/blink
2568-11-14 12:06:15.334,0,0,0.5205072170409972,0,0,0,0.1652535402410279,0,0,0,0.3422421533157295,0,0,0,0.639410540979214,0,0,0,0.5190741597186802,0,1650,1571.428571428572,822.3809523809524,1469.89010989011,902.1611721611722,-0.173950,0.118469,0.975037,-0.000000,-1.286011,-0.067291,410989.010989,122047619.047619,35306373.626374,67.149849,1,2,2,1,2,50.000000
2568-11-14 12:06:15.602,,,,,,,,,,,,,,,,,,,,,,,,,,,,,,,,,,,,,,,,,,/muse/elements/jaw_clench
2568-11-14 12:06:16.335,0,0,0.540487175046294,0,0,0,0.3238035627469145,0,0,0,0.4853795534798968,0,0,0,0.4590256807713559,0,0,0,0.4272636573283185,0,1299.047619047619,1479.157509157509,825.6043956043957,1569.81684981685,948.901098901099,-0.166931,0.125488,0.980957,0.291595,-1.958923,1.196289,411794.871795,121938021.978022,35233040.293040,67.450958,1,2,2,1,2,50.000000
2568-11-14 12:06:16.495,,,,,,,,,,,,,,,,,,,,,,,,,,,,,,,,,,,,,,,,,,/muse/elements/blink
2568-11-14 12:06:17.004,,,,,,,,,,,,,,,,,,,,,,,,,,,,,,,,,,,,,,,,,,/muse/elements/jaw_clench
2568-11-14 12:06:17.199,,,,,,,,,,,,,,,,,,,,,,,,,,,,,,,,,,,,,,,,,,/muse/elements/jaw_clench
2568-11-14 12:06:17.335,0,0,0.6317030418277768,0,0,0,0.2868025286562208,0,0,0,0.4892361947863841,0,0,0,0.5391007298331653,0,0,0,0.4567748585568884,0,0,254.6520146520147,752.2710622710623,228.4615384615385,589.4871794871796,-0.164307,0.128540,0.982422,0.209351,-1.719666,-0.493469,410183.150183,121697875.457875,35132307.692308,67.603088,1,2,2,1,2,50.000000
2568-11-14 12:06:17.722,,,,,,,,,,,,,,,,,,,,,,,,,,,,,,,,,,,,,,,,,,/muse/elements/blink
2568-11-14 12:06:17.963,,,,,,,,,,,,,,,,,,,,,,,,,,,,,,,,,,,,,,,,,,/muse/elements/jaw_clench
2568-11-14 12:06:18.139,,,,,,,,,,,,,,,,,,,,,,,,,,,,,,,,,,,,,,,,,,/muse/elements/jaw_clench
2568-11-14 12:06:18.336,0,0,0.5352709331452089,0,0,0,0.2392726903865671,0,0,0,0.3881048313624805,0,0,0,0.6940489374700571,0,0,0,0.5291445213019608,0,1650,1650,847.3626373626374,1650,896.9230769230769,-0.174194,0.119385,0.980591,-0.194397,-0.680389,-0.142059,409377.289377,121643076.923077,35135531.135531,67.722191,1,2,2,1,2,50.000000
2568-11-14 12:06:18.927,,,,,,,,,,,,,,,,,,,,,,,,,,,,,,,,,,,,,,,,,,/muse/elements/blink
2568-11-14 12:06:19.335,0,0,0.4322846954595871,0,0,0,0.2154264874313481,0,0,0,0.4367381320408234,0,0,0,0.696387048085814,0,0,0,0.4908764592008815,0,972.2710622710623,1050.03663003663,805.0549450549451,1098.388278388278,779.2673992673992,-0.162354,0.123474,0.975098,-0.209351,-1.876678,0.336456,410989.010989,121697875.457875,35154065.934066,68.537148,1,2,2,1,2,50.000000
2568-11-14 12:06:20.239,,,,,,,,,,,,,,,,,,,,,,,,,,,,,,,,,,,,,,,,,,/muse/elements/blink
2568-11-14 12:06:20.342,0,0,0.2248222595017695,0,0,0,0.1297951147551183,0,0,0,0.256269970205146,0,0,0,0.5629753388154001,0,0,0,0.2096307303277974,0,1365.531135531136,1096.373626373626,832.0512820512821,908.6080586080586,526.6300366300367,-0.161621,0.122131,0.977295,0.112152,-1.338348,-0.306549,410989.010989,121722857.142857,35155677.655678,68.942154,1,2,2,1,2,50.000000
2568-11-14 12:06:20.855,,,,,,,,,,,,,,,,,,,,,,,,,,,,,,,,,,,,,,,,,,/muse/elements/jaw_clench
2568-11-14 12:06:21.335,0,0,0.3085252555105346,0,0,0,0.2472520688775333,0,0,0,0.4234502748114898,0,0,0,0.558480398535827,0,0,0,0.2654101488406908,0,1650,1650,823.1868131868132,1650,1529.120879120879,-0.170715,0.114197,0.977722,-0.493469,-1.435547,-0.657959,408571.428571,122215238.095238,35370842.490842,68.713539,1,2,2,1,2,50.000000
2568-11-14 12:06:21.379,,,,,,,,,,,,,,,,,,,,,,,,,,,,,,,,,,,,,,,,,,/muse/elements/jaw_clench
2568-11-14 12:06:21.466,,,,,,,,,,,,,,,,,,,,,,,,,,,,,,,,,,,,,,,,,,/muse/elements/blink
2568-11-14 12:06:21.797,,,,,,,,,,,,,,,,,,,,,,,,,,,,,,,,,,,,,,,,,,/muse/elements/jaw_clench
2568-11-14 12:06:21.995,,,,,,,,,,,,,,,,,,,,,,,,,,,,,,,,,,,,,,,,,,/muse/elements/jaw_clench
2568-11-14 12:06:22.335,0,0,0.6150290570435677,0,0,0,0.6224851539406697,0,0,0,0.4340310576126924,0,0,0,0.5422345919978949,0,0,0,0.3328468463642569,0,193.4065934065934,631.7948717948718,765.5677655677656,608.021978021978,686.5934065934066,-0.161316,0.128784,0.978943,-0.254211,-1.914062,0.575714,409377.289377,121876776.556777,35217728.937729,68.691292,1,2,2,1,2,50.000000
2568-11-14 12:06:22.603,,,,,,,,,,,,,,,,,,,,,,,,,,,,,,,,,,,,,,,,,,/muse/elements/jaw_clench
2568-11-14 12:06:22.670,,,,,,,,,,,,,,,,,,,,,,,,,,,,,,,,,,,,,,,,,,/muse/elements/blink
2568-11-14 12:06:22.911,,,,,,,,,,,,,,,,,,,,,,,,,,,,,,,,,,,,,,,,,,/muse/elements/jaw_clench
2568-11-14 12:06:23.237,,,,,,,,,,,,,,,,,,,,,,,,,,,,,,,,,,,,,,,,,,/muse/elements/jaw_clench
2568-11-14 12:06:23.339,0,0,0.4543634973151736,0,0,0,0.5749913135142811,0,0,0,0.4305926813122281,0,0,0,0.4502964032843834,0,0,0,0.413992519453283,0,0,0,749.047619047619,0,301.7948717948718,-0.172180,0.120850,0.976013,-0.082245,-1.345825,0.231781,410183.150183,121638241.758242,35157289.377289,68.691292,1,2,2,1,2,50.000000
2568-11-14 12:06:23.792,,,,,,,,,,,,,,,,,,,,,,,,,,,,,,,,,,,,,,,,,,/muse/elements/jaw_clench
2568-11-14 12:06:24.031,,,,,,,,,,,,,,,,,,,,,,,,,,,,,,,,,,,,,,,,,,/muse/elements/blink
2568-11-14 12:06:24.335,0,0,0.06951083788791386,0.6251605633265912,0,0,0.4049952412421345,2.423221133093639,0,0,0.5345906240754682,0.8625721189281718,0,0,0.4726150957454718,0.8876660440239977,0,0,0.3924909852243449,1.281893431226423,1468.681318681319,1075.421245421245,831.6483516483516,966.2271062271062,635.0183150183151,-0.172546,0.111389,0.980408,-0.441132,-0.852356,-0.321503,409377.289377,121635018.315018,35150842.490842,68.774254,1,2,2,1,2,50.000000
2568-11-14 12:06:25.268,,,,,,,,,,,,,,,,,,,,,,,,,,,,,,,,,,,,,,,,,,/muse/elements/blink
2568-11-14 12:06:25.268,,,,,,,,,,,,,,,,,,,,,,,,,,,,,,,,,,,,,,,,,,/muse/elements/jaw_clench
2568-11-14 12:06:25.350,0,0,0.5749019158542373,0.6347712855904921,0,0,0.4817623147561672,2.316265715776709,0,0,0.5290779832551056,0.8944772555405553,0,0,0.5939634288257525,0.8430551785556661,0,0,0.3854947210983018,1.272519320409611,0,0,734.1391941391942,119.2673992673993,518.5714285714286,-0.174988,0.117798,0.978455,0.456085,-2.138367,0.717773,408571.428571,121813113.553114,35184688.644689,69.230965,1,2,2,1,2,50.000000
2568-11-14 12:06:26.151,,,,,,,,,,,,,,,,,,,,,,,,,,,,,,,,,,,,,,,,,,/muse/elements/jaw_clench
2568-11-14 12:06:26.335,0,0,0.7974379321905645,0.5894328716323252,0,0,0.2103573461336565,2.173740300530699,0,0,0.4306361192448945,0.6182837351599314,0,0,0.4806151527071894,0.8157646901287481,0,0,0.3933445488641008,1.275256231119225,657.985347985348,454.5054945054945,757.9120879120879,217.5824175824176,577.8021978021978,-0.172058,0.115051,0.976074,0.448608,-1.375732,-0.224304,409377.289377,121781684.981685,35196776.556777,70.193680,1,2,2,1,2,50.000000
2568-11-14 12:06:26.478,,,,,,,,,,,,,,,,,,,,,,,,,,,,,,,,,,,,,,,,,,/muse/elements/blink
2568-11-14 12:06:27.088,,,,,,,,,,,,,,,,,,,,,,,,,,,,,,,,,,,,,,,,,,/muse/elements/jaw_clench
2568-11-14 12:06:27.265,,,,,,,,,,,,,,,,,,,,,,,,,,,,,,,,,,,,,,,,,,/muse/elements/jaw_clench
2568-11-14 12:06:27.344,0,0,0.8108880178553752,0.5894328716323252,0,0,0.06658114885917528,2.173740300530699,0,0,0.5401013697092737,0.6182837351599314,0,0,0.5396902171056212,0.8157646901287481,0,0,0.1628206070046262,1.275256231119225,637.032967032967,720.8424908424909,791.3553113553114,834.0659340659341,929.5604395604396,-0.167053,0.113708,0.983215,0.373840,-1.480408,1.009369,409377.289377,121857435.897436,35219340.659341,70.743500,1,2,2,1,2,50.000000
2568-11-14 12:06:27.680,,,,,,,,,,,,,,,,,,,,,,,,,,,,,,,,,,,,,,,,,,/muse/elements/blink
2568-11-14 12:06:28.335,0,0,0.8125425682438719,0.5894328716323252,0,0,0.3560874258539338,2.173740300530699,0,0,0.5834569867680226,0.6182837351599314,0,0,0.613246272672729,0.8157646901287481,0,0,0.1883441128331819,1.275256231119225,0,0,734.9450549450549,0,620.1098901098901,-0.174133,0.113220,0.971741,0.112152,-1.644897,-0.949554,410989.010989,121552014.652015,35078315.018315,70.896622,1,2,2,1,2,50.000000
2568-11-14 12:06:29.019,,,,,,,,,,,,,,,,,,,,,,,,,,,,,,,,,,,,,,,,,,/muse/elements/blink
2568-11-14 12:06:29.335,0,0,0.6639223886187973,0.5894328716323252,0,0,0.115791550637871,2.173740300530699,0,0,0.4754446050261014,0.6182837351599314,0,0,0.4013521358904552,0.8157646901287481,0,0,0.2359653245321307,1.275256231119225,990,770,810.2930402930403,717.6190476190476,711.1721611721612,-0.170776,0.115479,0.980469,-0.000000,-1.181335,-0.927124,409377.289377,121441611.721612,35048498.168498,70.577332,1,2,2,1,2,50.000000
2568-11-14 12:06:29.713,,,,,,,,,,,,,,,,,,,,,,,,,,,,,,,,,,,,,,,,,,/muse/elements/jaw_clench
2568-11-14 12:06:29.887,,,,,,,,,,,,,,,,,,,,,,,,,,,,,,,,,,,,,,,,,,/muse/elements/jaw_clench
2568-11-14 12:06:30.126,,,,,,,,,,,,,,,,,,,,,,,,,,,,,,,,,,,,,,,,,,/muse/elements/jaw_clench
2568-11-14 12:06:30.214,,,,,,,,,,,,,,,,,,,,,,,,,,,,,,,,,,,,,,,,,,/muse/elements/blink
2568-11-14 12:06:30.340,0,0,0.6201537506470979,0.5894328716323252,0,0,-0.04019531998976589,2.173740300530699,0,0,0.4986898161354252,0.6182837351599314,0,0,0.4831017209138365,0.8157646901287481,0,0,0.3540755970493242,1.275256231119225,0,62.85714285714286,754.6886446886447,380.3663003663004,707.1428571428571,-0.171082,0.110962,0.976929,0.186920,-0.942078,-0.149536,410989.010989,121491575.091575,35066227.106227,70.299080,1,2,2,1,2,50.000000
2568-11-14 12:06:30.917,,,,,,,,,,,,,,,,,,,,,,,,,,,,,,,,,,,,,,,,,,/muse/elements/jaw_clench
2568-11-14 12:06:31.220,,,,,,,,,,,,,,,,,,,,,,,,,,,,,,,,,,,,,,,,,,/muse/elements/jaw_clench
2568-11-14 12:06:31.347,0,0,0.4330751453912662,0.568613571582628,0,0,0.3402590099884904,1.720045575542246,0,0,0.4685074632701031,0.9689486439189305,0,0,0.4939046284816584,1.094990959701053,0,0,0.3491003756703591,1.366253338967912,399.7069597069597,181.7216117216117,768.3882783882784,114.4322344322344,508.4981684981685,-0.177124,0.103638,0.972961,0.448608,-1.181335,0.628052,411794.871795,121566520.146520,35114578.754579,69.885048,1,2,2,1,2,50.000000
2568-11-14 12:06:31.442,,,,,,,,,,,,,,,,,,,,,,,,,,,,,,,,,,,,,,,,,,/muse/elements/blink
2568-11-14 12:06:31.727,,,,,,,,,,,,,,,,,,,,,,,,,,,,,,,,,,,,,,,,,,/muse/elements/jaw_clench
2568-11-14 12:06:32.348,0,0,0.3990137945613093,0.7096769238591195,0,0,0.3454024252107992,1.706839221696967,0,0,0.4414971994775153,0.8707791854567352,0,0,0.6388809750629346,0.852022450194025,0,0,0.2486539871260046,1.264840269492864,965.4212454212454,990.8058608058608,809.0842490842491,1037.142857142857,620.5128205128206,-0.179565,0.106445,0.980469,0.224304,-1.495361,0.620575,411794.871795,121589084.249084,35137142.857143,69.516502,1,2,2,1,2,50.000000
2568-11-14 12:06:32.571,,,,,,,,,,,,,,,,,,,,,,,,,,,,,,,,,,,,,,,,,,/muse/elements/jaw_clench
2568-11-14 12:06:32.658,,,,,,,,,,,,,,,,,,,,,,,,,,,,,,,,,,,,,,,,,,/muse/elements/blink
2568-11-14 12:06:32.766,,,,,,,,,,,,,,,,,,,,,,,,,,,,,,,,,,,,,,,,,,/muse/elements/jaw_clench
2568-11-14 12:06:32.940,,,,,,,,,,,,,,,,,,,,,,,,,,,,,,,,,,,,,,,,,,/muse/elements/jaw_clench
2568-11-14 12:06:33.341,0,0,0.5265374657305761,0.7096769238591195,0,0,0.2066353644754126,1.706839221696967,0,0,0.4201380192108478,0.8707791854567352,0,0,0.6252844748283372,0.852022450194025,0,0,0.395496678578536,1.264840269492864,0,0,730.5128205128206,0,600.7692307692308,-0.175171,0.116150,0.977783,0.089722,-1.256104,0.403748,413406.593407,121704322.344322,35199194.139194,68.904251,1,2,2,1,2,50.000000
2568-11-14 12:06:33.964,,,,,,,,,,,,,,,,,,,,,,,,,,,,,,,,,,,,,,,,,,/muse/elements/blink
2568-11-14 12:06:34.344,0,0,0.5977211454974988,0.7096769238591195,0,0,0.2962952514539138,1.706839221696967,0,0,0.3628582169114909,0.8707791854567352,0,0,0.703502370999308,0.852022450194025,0,0,0.4070383567672931,1.264840269492864,630.989010989011,632.1978021978022,767.5824175824176,566.5201465201466,358.2051282051282,-0.174500,0.112915,0.974365,0.755157,-1.846771,1.196289,412600.732601,121731721.611722,35191941.391941,68.663826,1,2,2,1,2,50.000000
2568-11-14 12:06:34.769,,,,,,,,,,,,,,,,,,,,,,,,,,,,,,,,,,,,,,,,,,/muse/elements/jaw_clench
2568-11-14 12:06:35.205,,,,,,,,,,,,,,,,,,,,,,,,,,,,,,,,,,,,,,,,,,/muse/elements/blink
2568-11-14 12:06:35.335,0,0,0.547011267660775,0.7096769238591195,0,0,0.1990951021963943,1.706839221696967,0,0,0.3424536775334465,0.8707791854567352,0,0,0.6638173521651745,0.852022450194025,0,0,0.2441547834808616,1.264840269492864,1650,1650,846.1538461538462,1650,922.3076923076924,-0.167908,0.111877,0.983704,-0.276642,-2.108459,-0.837402,411794.871795,121607619.047619,35149230.769231,68.847977,1,2,2,1,2,50.000000
2568-11-14 12:06:35.825,,,,,,,,,,,,,,,,,,,,,,,,,,,,,,,,,,,,,,,,,,/muse/elements/jaw_clench
2568-11-14 12:06:36.335,0,0,0.7883416039420977,0.7096769238591195,0,0,0.4833672839784593,1.706839221696967,0,0,0.5730071227365352,0.8707791854567352,0,0,0.4715371851578239,0.852022450194025,0,0,0.1628079445765946,1.264840269492864,0,0,741.7948717948718,0,603.5897435897436,-0.176025,0.110107,0.983154,0.373840,-1.816864,0.710297,410989.010989,121616483.516484,35121831.501832,69.039429,1,2,2,1,2,50.000000
2568-11-14 12:06:36.500,,,,,,,,,,,,,,,,,,,,,,,,,,,,,,,,,,,,,,,,,,/muse/elements/blink
2568-11-14 12:06:37.112,,,,,,,,,,,,,,,,,,,,,,,,,,,,,,,,,,,,,,,,,,/muse/elements/jaw_clench
2568-11-14 12:06:37.340,0,0,0.8605273240987764,0.7096769238591195,0,0,0.6385403368631569,1.706839221696967,0,0,0.6741147167716319,0.8707791854567352,0,0,0.5178578393469765,0.852022450194025,0,0,0.3139548055639779,1.264840269492864,1327.252747252747,992.4175824175825,813.1135531135532,885.2380952380953,556.8498168498169,-0.173889,0.114136,0.979858,-0.306549,-1.263580,-0.134583,411794.871795,121615677.655678,35144395.604396,69.373108,1,2,2,1,2,50.000000
2568-11-14 12:06:37.721,,,,,,,,,,,,,,,,,,,,,,,,,,,,,,,,,,,,,,,,,,/muse/elements/blink
2568-11-14 12:06:37.721,,,,,,,,,,,,,,,,,,,,,,,,,,,,,,,,,,,,,,,,,,/muse/elements/jaw_clench
2568-11-14 12:06:37.917,,,,,,,,,,,,,,,,,,,,,,,,,,,,,,,,,,,,,,,,,,/muse/elements/jaw_clench
2568-11-14 12:06:38.339,0,0,0.7638606396943173,0.7096769238591195,0,0,0.4917285665330036,1.706839221696967,0,0,0.7940305748791833,0.8707791854567352,0,0,0.5776043246996041,0.852022450194025,0,0,0.3492782597088968,1.264840269492864,0,22.16117216117216,755.4945054945055,203.4798534798535,629.3772893772893,-0.181396,0.108826,0.974548,-0.097198,-1.203766,0.657959,410989.010989,121617289.377289,35169377.289377,69.790550,1,2,2,1,2,50.000000
2568-11-14 12:06:38.937,,,,,,,,,,,,,,,,,,,,,,,,,,,,,,,,,,,,,,,,,,/muse/elements/blink
2568-11-14 12:06:39.067,,,,,,,,,,,,,,,,,,,,,,,,,,,,,,,,,,,,,,,,,,/muse/elements/jaw_clench
2568-11-14 12:06:39.340,0,0,0.8636436314777176,0.7096769238591195,0,0,0.4270286193277431,1.706839221696967,0,0,0.747527369845403,0.8707791854567352,0,0,0.6360663828870567,0.852022450194025,0,0,0.4101064462529467,1.264840269492864,396.0805860805861,166.007326007326,745.0183150183151,75.34798534798534,560.4761904761905,-0.188721,0.106628,0.974487,0.074768,-1.069183,0.142059,410183.150183,121763956.043956,35194358.974359,70.238716,1,2,2,1,2,50.000000
2568-11-14 12:06:40.268,,,,,,,,,,,,,,,,,,,,,,,,,,,,,,,,,,,,,,,,,,/muse/elements/blink
2568-11-14 12:06:40.349,0,0,0.619153622633643,0.7096769238591195,0,0,0.333359505818713,1.706839221696967,0,0,0.5447932920916351,0.8707791854567352,0,0,0.6926180808817678,0.852022450194025,0,0,0.3126160168488342,1.264840269492864,1631.465201465202,1508.168498168498,832.8571428571429,1199.52380952381,510.1098901098901,-0.181763,0.112061,0.981445,0.149536,-1.801910,0.964508,410183.150183,121582637.362637,35137948.717949,69.888557,1,2,2,1,2,50.000000
2568-11-14 12:06:41.334,0,0,0.5427898428253096,0.7096769238591195,0,0,0.2608456942179238,1.706839221696967,0,0,0.5213535279569934,0.8707791854567352,0,0,0.5629077716192931,0.852022450194025,0,0,0.2309290977030858,1.264840269492864,1558.937728937729,1650,840.1098901098901,1650,921.5018315018315,-0.175049,0.112488,0.978638,-0.112152,-1.929016,-0.239258,410183.150183,121390842.490842,35042857.142857,69.892204,1,2,2,1,2,50.000000
2568-11-14 12:06:41.476,,,,,,,,,,,,,,,,,,,,,,,,,,,,,,,,,,,,,,,,,,/muse/elements/blink
2568-11-14 12:06:42.335,0,0,0.4656624164532386,0.7336602859272608,0,0,0.1888739517387951,2.135811483542088,0,0,0.4483172087675642,0.8413523365642301,0,0,0.5203626769247682,1.05651818996179,0,0,0.1744993694571655,1.17895847484331,645.4945054945055,440.4029304029304,763.956043956044,219.1941391941392,491.978021978022,-0.189941,0.114685,0.982300,0.067291,-1.271057,0.500946,410183.150183,121349743.589744,35043663.003663,70.429062,1,2,2,1,2,50.000000
2568-11-14 12:06:42.792,,,,,,,,,,,,,,,,,,,,,,,,,,,,,,,,,,,,,,,,,,/muse/elements/blink
2568-11-14 12:06:42.964,,,,,,,,,,,,,,,,,,,,,,,,,,,,,,,,,,,,,,,,,,/muse/elements/jaw_clench
2568-11-14 12:06:43.334,0,0,0.3031667703571438,0.6480475420701214,0,0,0.3444537365849604,2.110135676704172,0,0,0.6391388723415684,0.8832601704328998,0,0,0.6170025329883926,0.9580299658375068,0,0,0.1717919999759223,1.176800465358788,1650,1600.43956043956,846.5567765567765,1348.205128205128,771.6117216117216,-0.176392,0.109497,0.977356,-0.037384,-1.330872,-0.134583,410989.010989,121314285.714286,35038021.978022,70.304482,1,2,2,1,2,50.000000
2568-11-14 12:06:44.149,,,,,,,,,,,,,,,,,,,,,,,,,,,,,,,,,,,,,,,,,,/muse/elements/blink
2568-11-14 12:06:44.340,0,0,0.314656436413512,0.5140540937834507,0,0,0.3766066922494425,2.074677939928842,0,0,0.7477145639405892,0.7151931699456978,0,0,0.5275233232995314,0.817628028081383,0,0,0.1687127538841094,1.171920350678858,0,0,744.2124542124542,0,468.6080586080586,-0.185059,0.111816,0.975159,-0.321503,-1.420593,0.358887,410183.150183,121397289.377289,35086373.626374,70.172493,1,2,2,1,2,50.000000
2568-11-14 12:06:44.436,,,,,,,,,,,,,,,,,,,,,,,,,,,,,,,,,,,,,,,,,,/muse/elements/jaw_clench
2568-11-14 12:06:44.612,,,,,,,,,,,,,,,,,,,,,,,,,,,,,,,,,,,,,,,,,,/muse/elements/jaw_clench
2568-11-14 12:06:45.334,0,0,0.6473404751823519,0.6989322500863645,0,0,0.4441908580749195,1.56763891088053,0,0,0.7071020917179579,0.9619282932407298,0,0,0.6072235116118356,1.140098946920403,0,0,0.2585207763852995,1.462277297493177,674.5054945054945,508.0952380952381,764.7619047619048,253.4432234432234,579.4139194139194,-0.181335,0.110107,0.976990,0.396271,-1.906586,0.523376,410183.150183,121519780.219780,35134725.274725,70.460938,1,2,2,1,2,50.000000
2568-11-14 12:06:45.358,,,,,,,,,,,,,,,,,,,,,,,,,,,,,,,,,,,,,,,,,,/muse/elements/blink
2568-11-14 12:06:45.358,,,,,,,,,,,,,,,,,,,,,,,,,,,,,,,,,,,,,,,,,,/muse/elements/jaw_clench
2568-11-14 12:06:45.973,,,,,,,,,,,,,,,,,,,,,,,,,,,,,,,,,,,,,,,,,,/muse/elements/jaw_clench
2568-11-14 12:06:46.337,0,0,0.7814164140730078,0.7729039479822999,0,0,0.2869392573046909,1.54719383039501,0,0,0.60736607966746,1.033515908780675,0,0,0.4477279687625773,1.174568552613754,0,0,0.307511399879595,1.517985265864205,1650,1635.091575091575,836.8864468864469,1412.673992673993,609.2307692307693,-0.182678,0.112732,0.977173,-0.014954,-1.757050,0.441132,409377.289377,121273992.673993,35045274.725275,70.299828,1,2,2,1,2,50.000000
2568-11-14 12:06:46.590,,,,,,,,,,,,,,,,,,,,,,,,,,,,,,,,,,,,,,,,,,/muse/elements/jaw_clench
2568-11-14 12:06:46.701,,,,,,,,,,,,,,,,,,,,,,,,,,,,,,,,,,,,,,,,,,/muse/elements/blink
2568-11-14 12:06:47.054,,,,,,,,,,,,,,,,,,,,,,,,,,,,,,,,,,,,,,,,,,/muse/elements/jaw_clench
2568-11-14 12:06:47.337,0,0,0.5224279584029036,0.6635167047072832,0,0,0.1492526252747103,1.553972146814119,0,0,0.6090734289582383,1.004708461700817,0,0,0.5822373676058702,1.120004924331068,0,0,0.3601663368030185,1.547534116116076,0,0,747.8388278388279,0,592.3076923076924,-0.184082,0.113281,0.972351,-0.418701,-1.293488,-0.463562,410183.150183,121173260.073260,35006593.406593,70.630417,1,2,2,1,2,50.000000
2568-11-14 12:06:47.990,,,,,,,,,,,,,,,,,,,,,,,,,,,,,,,,,,,,,,,,,,/muse/elements/blink
2568-11-14 12:06:47.990,,,,,,,,,,,,,,,,,,,,,,,,,,,,,,,,,,,,,,,,,,/muse/elements/jaw_clench
2568-11-14 12:06:48.335,0,0,0.5545838183603835,0.6635167047072832,0,0,0.2272798292175918,1.553972146814119,0,0,0.4322625878949,1.004708461700817,0,0,0.5916075024438309,1.120004924331068,0,0,0.3821985250196314,1.547534116116076,55.60439560439561,335.2380952380952,750.2564102564103,541.941391941392,797.8021978021978,-0.183167,0.112488,0.975464,0.074768,-1.465454,0.545807,408571.428571,121261904.761905,35033186.813187,70.887764,1,2,2,1,2,50.000000
2568-11-14 12:06:48.425,,,,,,,,,,,,,,,,,,,,,,,,,,,,,,,,,,,,,,,,,,/muse/elements/jaw_clench
2568-11-14 12:06:48.906,,,,,,,,,,,,,,,,,,,,,,,,,,,,,,,,,,,,,,,,,,/muse/elements/jaw_clench
2568-11-14 12:06:49.320,,,,,,,,,,,,,,,,,,,,,,,,,,,,,,,,,,,,,,,,,,/muse/elements/blink
2568-11-14 12:06:49.335,0,0,0.5061544145957678,0.6635167047072832,0,0,0.4110239027373572,1.553972146814119,0,0,0.677123666626693,1.004708461700817,0,0,0.5999203983156407,1.120004924331068,0,0,0.2291071683598644,1.547534116116076,1650,1633.076923076923,839.3040293040293,1301.465201465202,644.2857142857143,-0.182068,0.108215,0.976746,-0.224304,-1.734619,-0.022430,410989.010989,121320732.600733,35054945.054945,70.413597,1,2,2,1,2,50.000000
2568-11-14 12:06:50.340,0,0,0.4749809498841595,0.6635167047072832,0,0,0.5783067313190886,1.553972146814119,0,0,0.6266015160807197,1.004708461700817,0,0,0.6391898767836766,1.120004924331068,0,0,0.2301372887393358,1.547534116116076,0,0,739.7802197802198,0,447.6556776556777,-0.183899,0.109680,0.978210,0.209351,-1.443024,0.119629,410989.010989,121348937.728938,35097655.677656,69.969086,1,2,2,1,2,50.000000
2568-11-14 12:06:50.527,,,,,,,,,,,,,,,,,,,,,,,,,,,,,,,,,,,,,,,,,,/muse/elements/blink
2568-11-14 12:06:50.946,,,,,,,,,,,,,,,,,,,,,,,,,,,,,,,,,,,,,,,,,,/muse/elements/jaw_clench
2568-11-14 12:06:51.124,,,,,,,,,,,,,,,,,,,,,,,,,,,,,,,,,,,,,,,,,,/muse/elements/jaw_clench
2568-11-14 12:06:51.335,0,0,0.5883682656374666,0.6635167047072832,0,0,0.3452856199588867,1.553972146814119,0,0,0.2649765909707582,1.004708461700817,0,0,0.6201428272713421,1.120004924331068,0,0,0.3644921537414987,1.547534116116076,582.2344322344322,384.3956043956044,778.8644688644689,212.3443223443224,497.2161172161173,-0.190735,0.107117,0.984131,0.194397,-0.403748,0.149536,410183.150183,121487545.787546,35125860.805861,70.316322,1,2,2,1,2,50.000000
2568-11-14 12:06:51.453,,,,,,,,,,,,,,,,,,,,,,,,,,,,,,,,,,,,,,,,,,/muse/elements/jaw_clench
2568-11-14 12:06:51.651,,,,,,,,,,,,,,,,,,,,,,,,,,,,,,,,,,,,,,,,,,/muse/elements/jaw_clench
2568-11-14 12:06:51.828,,,,,,,,,,,,,,,,,,,,,,,,,,,,,,,,,,,,,,,,,,/muse/elements/jaw_clench
2568-11-14 12:06:51.937,,,,,,,,,,,,,,,,,,,,,,,,,,,,,,,,,,,,,,,,,,/muse/elements/blink
2568-11-14 12:06:52.069,,,,,,,,,,,,,,,,,,,,,,,,,,,,,,,,,,,,,,,,,,/muse/elements/jaw_clench
2568-11-14 12:06:52.350,0,0,0.3041395172688867,0.6635167047072832,0,0,0.3177052366330599,1.553972146814119,0,0,0.2487716089341252,1.004708461700817,0,0,0.7841086380903732,1.120004924331068,0,0,0.402423913715675,1.547534116116076,1639.120879120879,1553.699633699634,849.7802197802198,1178.571428571429,619.7069597069598,-0.191650,0.107361,0.975586,-0.127106,-2.377625,-0.710297,410989.010989,121211135.531136,35017069.597070,69.995659,1,2,2,1,2,50.000000
2568-11-14 12:06:52.972,,,,,,,,,,,,,,,,,,,,,,,,,,,,,,,,,,,,,,,,,,/muse/elements/jaw_clench
2568-11-14 12:06:53.300,,,,,,,,,,,,,,,,,,,,,,,,,,,,,,,,,,,,,,,,,,/muse/elements/blink
2568-11-14 12:06:53.300,,,,,,,,,,,,,,,,,,,,,,,,,,,,,,,,,,,,,,,,,,/muse/elements/jaw_clench
2568-11-14 12:06:53.335,0,0,0.4388094348395988,0.6635167047072832,0,0,0.249510539133834,1.553972146814119,0,0,0.3724419388233073,1.004708461700817,0,0,0.6774035898009316,1.120004924331068,0,0,0.4290997201291013,1.547534116116076,1650,1650,846.5567765567765,1650,1012.161172161172,-0.186890,0.105408,0.977783,-0.239258,-0.762634,-0.014954,412600.732601,121024175.824176,34942930.402930,69.921532,1,2,2,1,2,50.000000
2568-11-14 12:06:53.654,,,,,,,,,,,,,,,,,,,,,,,,,,,,,,,,,,,,,,,,,,/muse/elements/jaw_clench
2568-11-14 12:06:54.342,0,0,0.7882315624733096,0.6635167047072832,0,0,0.0988782899007013,1.553972146814119,0,0,0.444048220658442,1.004708461700817,0,0,0.5345065266347262,1.120004924331068,0,0,0.4368300912428849,1.547534116116076,300.989010989011,76.95970695970696,752.6739926739926,27.3992673992674,606.007326007326,-0.190247,0.106812,0.975952,-0.097198,-1.390686,0.186920,411794.871795,121147472.527473,35000952.380952,70.553535,1,2,2,1,2,50.000000
2568-11-14 12:06:54.594,,,,,,,,,,,,,,,,,,,,,,,,,,,,,,,,,,,,,,,,,,/muse/elements/blink
2568-11-14 12:06:54.967,,,,,,,,,,,,,,,,,,,,,,,,,,,,,,,,,,,,,,,,,,/muse/elements/jaw_clench
2568-11-14 12:06:55.349,0,0,0.7224529655039332,0.6635167047072832,0,0,0.4786763596552316,1.553972146814119,0,0,0.6423597241366311,1.004708461700817,0,0,0.5388387491206267,1.120004924331068,0,0,0.3217592610470011,1.547534116116076,1496.080586080586,1218.058608058608,811.5018315018315,929.1575091575091,574.981684981685,-0.186157,0.112488,0.977966,0.366364,-1.480408,-0.246735,411794.871795,121327985.347985,35063003.663004,70.777550,1,2,2,1,2,50.000000
2568-11-14 12:06:55.924,,,,,,,,,,,,,,,,,,,,,,,,,,,,,,,,,,,,,,,,,,/muse/elements/blink
2568-11-14 12:06:56.335,0,0,0.6540622611017153,0.6635167047072832,0,0,0.631033838321018,1.553972146814119,0,0,0.8339652958322121,1.004708461700817,0,0,0.6180528808206684,1.120004924331068,0,0,0.4458847592952841,1.547534116116076,1650,1650,844.1391941391942,1650,1002.087912087912,-0.187683,0.105225,0.975952,0.089722,-1.413116,0.119629,414212.454212,121393260.073260,35091208.791209,70.578247,1,2,2,1,2,50.000000
2568-11-14 12:06:56.339,,,,,,,,,,,,,,,,,,,,,,,,,,,,,,,,,,,,,,,,,,/muse/elements/jaw_clench
2568-11-14 12:06:57.217,,,,,,,,,,,,,,,,,,,,,,,,,,,,,,,,,,,,,,,,,,/muse/elements/blink
2568-11-14 12:06:57.343,0,0,0.7959076824819553,0.6635167047072832,0,0,0.5515862494204926,1.553972146814119,0,0,0.8674539977501169,1.004708461700817,0,0,0.6749202923325966,1.120004924331068,0,0,0.4957522801563547,1.547534116116076,0,0,747.8388278388279,0,435.970695970696,-0.189331,0.107971,0.979858,0.044861,-0.986938,0.097198,413406.593407,121509304.029304,35123443.223443,70.175385,1,2,2,1,2,50.000000
2568-11-14 12:06:57.743,,,,,,,,,,,,,,,,,,,,,,,,,,,,,,,,,,,,,,,,,,/muse/elements/jaw_clench
2568-11-14 12:06:58.027,,,,,,,,,,,,,,,,,,,,,,,,,,,,,,,,,,,,,,,,,,/muse/elements/blink
2568-11-14 12:06:58.349,0,0,0.5625414806491174,0.6635167047072832,0,0,0.3336723478935263,1.553972146814119,0,0,0.8000575032425454,1.004708461700817,0,0,0.6484535006212263,1.120004924331068,0,0,0.6482429266672848,1.547534116116076,442.014652014652,848.5714285714286,782.4908424908425,991.2087912087912,753.4798534798535,-0.189331,0.108093,0.971069,0.343933,-1.338348,0.343933,412600.732601,121437582.417582,35118608.058608,70.000198,1,2,2,1,2,50.000000
2568-11-14 12:06:59.252,,,,,,,,,,,,,,,,,,,,,,,,,,,,,,,,,,,,,,,,,,/muse/elements/blink
2568-11-14 12:06:59.335,0,0,0.4605183442357759,0.6635167047072832,0,0,0.06954309782265132,1.553972146814119,0,0,0.5537401672942124,1.004708461700817,0,0,0.6829643055673023,1.120004924331068,0,0,0.6750444950191123,1.547534116116076,0,0,745.4212454212454,84.61538461538461,542.3443223443223,-0.185303,0.113586,0.976868,-0.037384,-2.115936,-0.538330,414212.454212,121216776.556777,35048498.168498,69.522873,1,2,2,1,2,50.000000
2568-11-14 12:07:00.343,0,0,0.721129105360892,0.5802100513728148,0,0,0.0137620919281978,1.672294468385963,0,0,0.7453573143267351,1.002603344635137,0,0,0.6710442137753114,0.9509450744441866,0,0,0.3319588643958183,1.156301560759025,1650,1650,857.4358974358975,1650,843.3333333333334,-0.192627,0.101807,0.971375,0.157013,-1.383209,0.022430,415824.175824,121233699.633700,35041245.421245,69.038048,1,2,2,1,2,50.000000
2568-11-14 12:07:00.614,,,,,,,,,,,,,,,,,,,,,,,,,,,,,,,,,,,,,,,,,,/muse/elements/blink
2568-11-14 12:07:01.078,,,,,,,,,,,,,,,,,,,,,,,,,,,,,,,,,,,,,,,,,,/muse/elements/jaw_clench
2568-11-14 12:07:01.335,0,0,0.7687945467177041,0.6316841284225242,0,0,0.2383468208922678,1.670529315237272,0,0,0.6730819124596927,0.9593805758794881,0,0,0.5069106786237592,0.9588542605664082,0,0,0.3601647745073891,1.144009870454377,992.8205128205128,1363.919413919414,797.8021978021978,1377.216117216117,912.2344322344322,-0.192139,0.101440,0.977539,0.478516,-1.457977,0.500946,415824.175824,121282857.142857,35074285.714286,69.482079,1,2,2,1,2,50.000000
2568-11-14 12:07:01.408,,,,,,,,,,,,,,,,,,,,,,,,,,,,,,,,,,,,,,,,,,/muse/elements/jaw_clench
2568-11-14 12:07:01.913,,,,,,,,,,,,,,,,,,,,,,,,,,,,,,,,,,,,,,,,,,/muse/elements/blink
2568-11-14 12:07:02.284,,,,,,,,,,,,,,,,,,,,,,,,,,,,,,,,,,,,,,,,,,/muse/elements/jaw_clench
2568-11-14 12:07:02.338,0,0,0.7195239899171416,0.6316841284225242,0,0,0.4165859034709192,1.670529315237272,0,0,0.384030552790277,0.9593805758794881,0,0,0.4435178765483753,0.9588542605664082,0,0,0.3460457756505253,1.144009870454377,1116.923076923077,683.7728937728938,791.3553113553114,431.1355311355312,590.6959706959707,-0.194275,0.102417,0.974060,0.231781,-2.003784,-0.411224,415824.175824,121388424.908425,35108131.868132,70.184242,1,2,2,1,2,50.000000
2568-11-14 12:07:02.529,,,,,,,,,,,,,,,,,,,,,,,,,,,,,,,,,,,,,,,,,,/muse/elements/jaw_clench
2568-11-14 12:07:02.902,,,,,,,,,,,,,,,,,,,,,,,,,,,,,,,,,,,,,,,,,,/muse/elements/jaw_clench
2568-11-14 12:07:03.231,,,,,,,,,,,,,,,,,,,,,,,,,,,,,,,,,,,,,,,,,,/muse/elements/blink
2568-11-14 12:07:03.335,0,0,0.2254136899025467,0.6316841284225242,0,0,0.4217964817687891,1.670529315237272,0,0,0.6360700564831702,0.9593805758794881,0,0,0.516879725657311,0.9588542605664082,0,0,0.3933510617719038,1.144009870454377,1650,1650,855.4212454212454,1501.721611721612,861.8681318681319,-0.197205,0.096741,0.982117,-0.142059,-1.203766,-0.433655,415018.315018,121358608.058608,35120219.780220,70.535942,1,2,2,1,2,50.000000
2568-11-14 12:07:03.842,,,,,,,,,,,,,,,,,,,,,,,,,,,,,,,,,,,,,,,,,,/muse/elements/jaw_clench
2568-11-14 12:07:04.338,0,0,0.4412231592185064,0.6316841284225242,0,0,0.615375533134609,1.670529315237272,0,0,0.7152812756818288,0.9593805758794881,0,0,0.5313015451854657,0.9588542605664082,0,0,0.3715263227729417,1.144009870454377,1373.992673992674,1479.96336996337,795.3846153846154,1584.725274725275,1002.490842490843,-0.199585,0.099609,0.983276,-0.134583,-1.749573,0.164490,414212.454212,121228058.608059,35024322.344322,70.760803,1,2,2,1,2,50.000000
2568-11-14 12:07:04.459,,,,,,,,,,,,,,,,,,,,,,,,,,,,,,,,,,,,,,,,,,/muse/elements/jaw_clench
2568-11-14 12:07:04.636,,,,,,,,,,,,,,,,,,,,,,,,,,,,,,,,,,,,,,,,,,/muse/elements/blink
2568-11-14 12:07:04.876,,,,,,,,,,,,,,,,,,,,,,,,,,,,,,,,,,,,,,,,,,/muse/elements/jaw_clench
2568-11-14 12:07:05.341,0,0,0.5486155640481163,0.6316841284225242,0,0,0.548539828877146,1.670529315237272,0,0,0.69214448175534,0.9593805758794881,0,0,0.5069254000650736,0.9588542605664082,0,0,0.3875257108395215,1.144009870454377,755.4945054945055,412.1978021978022,788.5347985347986,181.7216117216117,475.8608058608059,-0.191406,0.096619,0.979919,-0.246735,-0.904694,0.194397,415018.315018,121071721.611722,34975164.835165,70.643036,1,2,2,1,2,50.000000
2568-11-14 12:07:05.482,,,,,,,,,,,,,,,,,,,,,,,,,,,,,,,,,,,,,,,,,,/muse/elements/jaw_clench
2568-11-14 12:07:05.680,,,,,,,,,,,,,,,,,,,,,,,,,,,,,,,,,,,,,,,,,,/muse/elements/jaw_clench
2568-11-14 12:07:05.948,,,,,,,,,,,,,,,,,,,,,,,,,,,,,,,,,,,,,,,,,,/muse/elements/blink
2568-11-14 12:07:06.210,,,,,,,,,,,,,,,,,,,,,,,,,,,,,,,,,,,,,,,,,,/muse/elements/jaw_clench
2568-11-14 12:07:06.335,0,0,0.2932327134354223,0.6316841284225242,0,0,0.2557114477707314,1.670529315237272,0,0,0.5159710358855648,0.9593805758794881,0,0,0.5670718149960923,0.9588542605664082,0,0,0.3501081282026119,1.144009870454377,14.50549450549451,0,747.032967032967,0,485.9340659340659,-0.191956,0.101074,0.975891,0.104675,-1.173859,0.388794,413406.593407,121015311.355311,34959853.479853,70.397575,1,2,2,1,2,50.000000
2568-11-14 12:07:06.368,,,,,,,,,,,,,,,,,,,,,,,,,,,,,,,,,,,,,,,,,,/muse/elements/jaw_clench
2568-11-14 12:07:06.788,,,,,,,,,,,,,,,,,,,,,,,,,,,,,,,,,,,,,,,,,,/muse/elements/jaw_clench
2568-11-14 12:07:07.311,,,,,,,,,,,,,,,,,,,,,,,,,,,,,,,,,,,,,,,,,,/muse/elements/blink
2568-11-14 12:07:07.354,0,0,0.3896121823534859,0.6316841284225242,0,0,0.04282722958253369,1.670529315237272,0,0,0.2929387292660943,0.9593805758794881,0,0,0.6000206132909562,0.9588542605664082,0,0,0.3974176678223687,1.144009870454377,1487.619047619048,1593.186813186813,837.6923076923077,1650,941.6483516483516,-0.188049,0.099854,0.971741,0.201874,-1.966400,0.403748,415018.315018,121128937.728938,35022710.622711,69.930458,1,2,2,1,2,50.000000
2568-11-14 12:07:07.800,,,,,,,,,,,,,,,,,,,,,,,,,,,,,,,,,,,,,,,,,,/muse/elements/jaw_clench
2568-11-14 12:07:08.341,0,0,0.5242041055239549,0.6316841284225242,0,0,0.3243539365092153,1.670529315237272,0,0,0.6484108704008734,0.9593805758794881,0,0,0.5232277048333288,0.9588542605664082,0,0,0.4214172484404479,1.144009870454377,284.8717948717949,119.2673992673993,766.3736263736264,62.45421245421245,537.9120879120879,-0.193909,0.098511,0.976868,-0.239258,-1.054230,-0.381317,414212.454212,121171648.351648,35033186.813187,69.819893,1,2,2,1,2,50.000000
2568-11-14 12:07:08.524,,,,,,,,,,,,,,,,,,,,,,,,,,,,,,,,,,,,,,,,,,/muse/elements/jaw_clench
2568-11-14 12:07:08.633,,,,,,,,,,,,,,,,,,,,,,,,,,,,,,,,,,,,,,,,,,/muse/elements/blink
2568-11-14 12:07:09.226,,,,,,,,,,,,,,,,,,,,,,,,,,,,,,,,,,,,,,,,,,/muse/elements/jaw_clench
2568-11-14 12:07:09.347,0,0,0.6304110867707311,0.6316841284225242,0,0,0.4243324676020701,1.670529315237272,0,0,0.7263178110583084,0.9593805758794881,0,0,0.6364210119570574,0.9588542605664082,0,0,0.3639632354147579,1.144009870454377,1538.388278388278,1385.677655677656,844.5421245421246,1268.424908424908,990,-0.197205,0.098083,0.981812,-0.164490,-0.934601,-0.142059,415018.315018,121239340.659341,35058974.358974,69.846977,1,2,2,1,2,50.000000
2568-11-14 12:07:09.422,,,,,,,,,,,,,,,,,,,,,,,,,,,,,,,,,,,,,,,,,,/muse/elements/jaw_clench
2568-11-14 12:07:09.925,,,,,,,,,,,,,,,,,,,,,,,,,,,,,,,,,,,,,,,,,,/muse/elements/blink
2568-11-14 12:07:10.335,0,0,0.538055502687393,0.6316841284225242,0,0,0.4934142408587521,1.670529315237272,0,0,0.5162939467779289,0.9593805758794881,0,0,0.6137829517415665,0.9588542605664082,0,0,0.2999201297644435,1.144009870454377,1557.728937728938,1650,830.4395604395604,1650,871.5384615384615,-0.195374,0.104065,0.976379,-0.568237,-1.263580,-0.119629,413406.593407,121184542.124542,35054945.054945,70.066994,1,2,2,1,2,50.000000
2568-11-14 12:07:10.536,,,,,,,,,,,,,,,,,,,,,,,,,,,,,,,,,,,,,,,,,,/muse/elements/jaw_clench
2568-11-14 12:07:11.175,,,,,,,,,,,,,,,,,,,,,,,,,,,,,,,,,,,,,,,,,,/muse/elements/jaw_clench
2568-11-14 12:07:11.242,,,,,,,,,,,,,,,,,,,,,,,,,,,,,,,,,,,,,,,,,,/muse/elements/blink
2568-11-14 12:07:11.335,0,0,0.397078629692236,0.6316841284225242,0,0,0.5221548418858243,1.670529315237272,0,0,0.5183918394581465,0.9593805758794881,0,0,0.5995446449992574,0.9588542605664082,0,0,0.4051287170462605,1.144009870454377,364.6520146520147,549.5970695970697,765.5677655677656,834.0659340659341,689.8168498168499,-0.193054,0.107300,0.979675,0.149536,-1.323395,-0.022430,414212.454212,120822710.622711,34889743.589744,70.201523,1,2,2,1,2,50.000000
2568-11-14 12:07:11.769,,,,,,,,,,,,,,,,,,,,,,,,,,,,,,,,,,,,,,,,,,/muse/elements/jaw_clench
2568-11-14 12:07:12.344,0,0,0.2976509788353905,0.6316841284225242,0,0,0.318721222522179,1.670529315237272,0,0,0.3066702073849869,0.9593805758794881,0,0,0.6908208327986461,0.9588542605664082,0,0,0.2261952761766897,1.144009870454377,1337.326007326007,1269.230769230769,823.1868131868132,1131.025641025641,806.6666666666667,-0.196960,0.104919,0.977295,0.022430,-1.719666,0.029907,415018.315018,120821098.901099,34916336.996337,70.195335,1,2,2,1,2,50.000000
2568-11-14 12:07:12.548,,,,,,,,,,,,,,,,,,,,,,,,,,,,,,,,,,,,,,,,,,/muse/elements/blink
2568-11-14 12:07:12.985,,,,,,,,,,,,,,,,,,,,,,,,,,,,,,,,,,,,,,,,,,/muse/elements/jaw_clench
2568-11-14 12:07:13.335,0,0,0.3385836068163412,0.6316841284225242,0,0,0.2295698145082294,1.670529315237272,0,0,0.2543574559407135,0.9593805758794881,0,0,0.7035493670304209,0.9588542605664082,0,0,0.3373677689656097,1.144009870454377,1650,1650,839.3040293040293,1650,948.0952380952381,-0.190125,0.102600,0.980164,-0.171967,-1.585083,0.052338,415824.175824,120858974.358974,34929230.769231,70.209854,1,2,2,1,2,50.000000
2568-11-14 12:07:13.774,,,,,,,,,,,,,,,,,,,,,,,,,,,,,,,,,,,,,,,,,,/muse/elements/blink
2568-11-14 12:07:13.883,,,,,,,,,,,,,,,,,,,,,,,,,,,,,,,,,,,,,,,,,,/muse/elements/jaw_clench
2568-11-14 12:07:14.192,,,,,,,,,,,,,,,,,,,,,,,,,,,,,,,,,,,,,,,,,,/muse/elements/jaw_clench
2568-11-14 12:07:14.335,0,0,0.4878970731865407,0.6316841284225242,0,0,0.04868394989624439,1.670529315237272,0,0,0.4219972327740804,0.9593805758794881,0,0,0.7011818579584456,0.9588542605664082,0,0,0.2197499933698152,1.144009870454377,390.4395604395605,738.974358974359,783.2967032967033,997.2527472527473,848.5714285714286,-0.183167,0.107300,0.974548,-0.381317,-1.861725,-0.500946,415018.315018,120941172.161172,34976776.556777,69.978836,1,2,2,1,2,50.000000
2568-11-14 12:07:14.809,,,,,,,,,,,,,,,,,,,,,,,,,,,,,,,,,,,,,,,,,,/muse/elements/jaw_clench
2568-11-14 12:07:15.094,,,,,,,,,,,,,,,,,,,,,,,,,,,,,,,,,,,,,,,,,,/muse/elements/blink
2568-11-14 12:07:15.335,0,0,0.562361860759909,0.6316841284225242,0,0,-0.004030288910578824,1.670529315237272,0,0,0.4607019739725735,0.9593805758794881,0,0,0.6252572145458928,0.9588542605664082,0,0,0.1936001153986049,1.144009870454377,0,0,733.7362637362637,0,648.3150183150183,-0.191956,0.104004,0.970703,0.186920,-1.271057,0.343933,415018.315018,121056410.256410,34988864.468864,69.863579,1,2,2,1,2,50.000000
2568-11-14 12:07:15.512,,,,,,,,,,,,,,,,,,,,,,,,,,,,,,,,,,,,,,,,,,/muse/elements/jaw_clench
2568-11-14 12:07:15.713,,,,,,,,,,,,,,,,,,,,,,,,,,,,,,,,,,,,,,,,,,/muse/elements/jaw_clench
2568-11-14 12:07:16.341,0,0,0.4991132012872988,0.6316841284225242,0,0,0.03376765101412701,1.670529315237272,0,0,0.3174202255085213,0.9593805758794881,0,0,0.7397105624535244,0.9588542605664082,0,0,0.3987540719350073,1.144009870454377,1650,1650,833.2600732600733,1650,918.2783882783883,-0.189026,0.105408,0.981323,0.216827,-1.099091,0.740204,414212.454212,120844468.864469,34921978.021978,70.316078,1,2,2,1,2,50.000000
2568-11-14 12:07:16.461,,,,,,,,,,,,,,,,,,,,,,,,,,,,,,,,,,,,,,,,,,/muse/elements/blink
2568-11-14 12:07:16.639,,,,,,,,,,,,,,,,,,,,,,,,,,,,,,,,,,,,,,,,,,/muse/elements/jaw_clench
2568-11-14 12:07:16.838,,,,,,,,,,,,,,,,,,,,,,,,,,,,,,,,,,,,,,,,,,/muse/elements/jaw_clench
2568-11-14 12:07:17.335,0,0,0.2952529943459281,0.6316841284225242,0,0,-0.03391350328781775,1.670529315237272,0,0,0.6095149966363622,0.9593805758794881,0,0,0.7151652856410811,0.9588542605664082,0,0,0.4028502232206511,1.144009870454377,475.4578754578754,838.901098901099,780.4761904761905,1110.879120879121,888.4615384615385,-0.182495,0.105469,0.973450,0.246735,-2.018738,0.044861,413406.593407,120634945.054945,34849450.549451,70.235001,1,2,2,1,2,50.000000
2568-11-14 12:07:17.538,,,,,,,,,,,,,,,,,,,,,,,,,,,,,,,,,,,,,,,,,,/muse/elements/jaw_clench
2568-11-14 12:07:17.781,,,,,,,,,,,,,,,,,,,,,,,,,,,,,,,,,,,,,,,,,,/muse/elements/blink
2568-11-14 12:07:17.781,,,,,,,,,,,,,,,,,,,,,,,,,,,,,,,,,,,,,,,,,,/muse/elements/jaw_clench
2568-11-14 12:07:18.344,0,0,0.5566303544696738,0.6316841284225242,0,0,0.2613546568460827,1.670529315237272,0,0,0.6645854476672051,0.9593805758794881,0,0,0.4129158921706312,0.9588542605664082,0,0,0.374638095451164,1.144009870454377,1251.098901098901,1182.600732600733,805.4578754578755,967.032967032967,736.5567765567765,-0.194702,0.104309,0.972168,0.366364,-1.570129,0.351410,413406.593407,120805787.545788,34885714.285714,69.876610,1,2,2,1,2,50.000000
2568-11-14 12:07:18.464,,,,,,,,,,,,,,,,,,,,,,,,,,,,,,,,,,,,,,,,,,/muse/elements/jaw_clench
2568-11-14 12:07:19.076,,,,,,,,,,,,,,,,,,,,,,,,,,,,,,,,,,,,,,,,,,/muse/elements/blink
2568-11-14 12:07:19.165,,,,,,,,,,,,,,,,,,,,,,,,,,,,,,,,,,,,,,,,,,/muse/elements/jaw_clench
2568-11-14 12:07:19.336,0,0,0.5146569242798977,0.6316841284225242,0,0,0.4229663223212479,1.670529315237272,0,0,0.4646488200811006,0.9593805758794881,0,0,0.5845634188448321,0.9588542605664082,0,0,0.4554534492608163,1.144009870454377,1650,1650,840.1098901098901,1650,1259.56043956044,-0.192322,0.108582,0.975769,-0.127106,-0.994415,-0.029907,411794.871795,120804981.684982,34905054.945055,70.098495,1,2,2,1,2,50.000000
2568-11-14 12:07:19.492,,,,,,,,,,,,,,,,,,,,,,,,,,,,,,,,,,,,,,,,,,/muse/elements/jaw_clench
2568-11-14 12:07:19.687,,,,,,,,,,,,,,,,,,,,,,,,,,,,,,,,,,,,,,,,,,/muse/elements/jaw_clench
2568-11-14 12:07:20.336,0,0,0.2151758184026276,0.6316841284225242,0,0,0.2817099619136074,1.670529315237272,0,0,0.4297315851775524,0.9593805758794881,0,0,0.6895870418667374,0.9588542605664082,0,0,0.4079687713054869,1.144009870454377,453.2967032967033,789.7435897435897,808.6813186813187,1082.271062271062,784.9084249084249,-0.189697,0.107117,0.976685,-0.411224,-1.480408,-0.478516,410989.010989,120896849.816850,34967106.227106,70.129051,1,2,2,1,2,50.000000
2568-11-14 12:07:20.386,,,,,,,,,,,,,,,,,,,,,,,,,,,,,,,,,,,,,,,,,,/muse/elements/blink
2568-11-14 12:07:20.474,,,,,,,,,,,,,,,,,,,,,,,,,,,,,,,,,,,,,,,,,,/muse/elements/jaw_clench
2568-11-14 12:07:21.325,,,,,,,,,,,,,,,,,,,,,,,,,,,,,,,,,,,,,,,,,,/muse/elements/jaw_clench
2568-11-14 12:07:21.337,0,0,0.3881628855839657,0.6316841284225242,0,0,-0.0130855372924279,1.670529315237272,0,0,0.3311454008328535,0.9593805758794881,0,0,0.5181807540059222,0.9588542605664082,0,0,0.3682438117549034,1.144009870454377,1249.89010989011,1220.476190476191,808.2783882783883,1013.772893772894,779.2673992673992,-0.191650,0.105774,0.974121,0.478516,-1.405640,-0.082245,410989.010989,121020952.380952,34990476.190476,70.195137,1,2,2,1,2,50.000000
2568-11-14 12:07:21.609,,,,,,,,,,,,,,,,,,,,,,,,,,,,,,,,,,,,,,,,,,/muse/elements/blink
2568-11-14 12:07:21.934,,,,,,,,,,,,,,,,,,,,,,,,,,,,,,,,,,,,,,,,,,/muse/elements/jaw_clench
2568-11-14 12:07:22.134,,,,,,,,,,,,,,,,,,,,,,,,,,,,,,,,,,,,,,,,,,/muse/elements/jaw_clench
2568-11-14 12:07:22.349,0,0,0.4436655318805489,0.6316841284225242,0,0,-0.04474929998149001,1.670529315237272,0,0,0.4461703113252948,0.9593805758794881,0,0,0.3864732914043442,0.9588542605664082,0,0,0.3467691387462803,1.144009870454377,1650,1650,857.8388278388279,1650,987.5824175824176,-0.195496,0.106384,0.974609,-0.007477,-1.300964,-0.822449,411794.871795,120695384.615385,34860732.600733,70.775719,1,2,2,1,2,50.000000
2568-11-14 12:07:22.910,,,,,,,,,,,,,,,,,,,,,,,,,,,,,,,,,,,,,,,,,,/muse/elements/blink
2568-11-14 12:07:23.336,0,0,0.5097050554778564,0.6316841284225242,0,0,0.1064506638907534,1.670529315237272,0,0,0.3464950401399144,0.9593805758794881,0,0,0.5146911574002329,0.9588542605664082,0,0,0.2371821915113196,1.144009870454377,443.6263736263737,776.0439560439561,777.2527472527473,1051.648351648352,797.3992673992674,-0.194153,0.108154,0.976562,0.224304,-1.188812,0.119629,410183.150183,120565641.025641,34837362.637363,71.000130,1,2,2,1,2,50.000000
2568-11-14 12:07:23.765,,,,,,,,,,,,,,,,,,,,,,,,,,,,,,,,,,,,,,,,,,/muse/elements/jaw_clench
2568-11-14 12:07:23.965,,,,,,,,,,,,,,,,,,,,,,,,,,,,,,,,,,,,,,,,,,/muse/elements/jaw_clench
2568-11-14 12:07:24.227,,,,,,,,,,,,,,,,,,,,,,,,,,,,,,,,,,,,,,,,,,/muse/elements/blink
2568-11-14 12:07:24.336,0,0,0.639781823312171,0.6316841284225242,0,0,0.3733581837365707,1.670529315237272,0,0,0.3472520556403547,0.9593805758794881,0,0,0.5498407181481073,0.9588542605664082,0,0,0.2486021238321596,1.144009870454377,1318.388278388278,1279.304029304029,836.0805860805862,978.3150183150184,767.985347985348,-0.193848,0.104919,0.976013,0.119629,-1.570129,0.366364,411794.871795,120727619.047619,34896190.476190,70.677231,1,2,2,1,2,50.000000
2568-11-14 12:07:24.469,,,,,,,,,,,,,,,,,,,,,,,,,,,,,,,,,,,,,,,,,,/muse/elements/jaw_clench
2568-11-14 12:07:25.340,0,0,0.6012688004478633,0.6316841284225242,0,0,0.1241990948546318,1.670529315237272,0,0,0.4176010229531547,0.9593805758794881,0,0,0.5916222221952562,0.9588542605664082,0,0,0.3806463296127305,1.144009870454377,1650,1650,833.2600732600733,1650,911.0256410256411,-0.191956,0.104431,0.979004,0.059814,-1.607513,0.403748,412600.732601,120790476.190476,34933260.073260,71.010895,1,2,2,1,2,50.000000
2568-11-14 12:07:25.584,,,,,,,,,,,,,,,,,,,,,,,,,,,,,,,,,,,,,,,,,,/muse/elements/blink
2568-11-14 12:07:25.781,,,,,,,,,,,,,,,,,,,,,,,,,,,,,,,,,,,,,,,,,,/muse/elements/jaw_clench
2568-11-14 12:07:25.978,,,,,,,,,,,,,,,,,,,,,,,,,,,,,,,,,,,,,,,,,,/muse/elements/jaw_clench
2568-11-14 12:07:26.342,0,0,0.4927288916048789,0.6316841284225242,0,0,0.3125994469295847,1.670529315237272,0,0,0.6295192606643646,0.9593805758794881,0,0,0.7178196697721643,0.9588542605664082,0,0,0.3556218339123894,1.144009870454377,133.3699633699634,53.58974358974359,761.5384615384615,0,383.1868131868132,-0.189392,0.108826,0.974426,-0.194397,-1.831818,-0.702820,411794.871795,120860586.080586,34929230.769231,71.571617,1,2,2,1,2,50.000000
2568-11-14 12:07:26.810,,,,,,,,,,,,,,,,,,,,,,,,,,,,,,,,,,,,,,,,,,/muse/elements/blink
2568-11-14 12:07:27.336,0,0,0.4717397830440687,0.6316841284225242,0,0,0.1964177510855235,1.670529315237272,0,0,0.6555570788679025,0.9593805758794881,0,0,0.6174398108433109,0.9588542605664082,0,0,0.2662382570093082,1.144009870454377,1295.824175824176,1260.3663003663,810.6959706959707,1127.399267399268,1021.831501831502,-0.190857,0.106995,0.974792,0.127106,-1.861725,-0.710297,412600.732601,120530183.150183,34784175.824176,71.549347,1,2,2,1,2,50.000000
2568-11-14 12:07:27.801,,,,,,,,,,,,,,,,,,,,,,,,,,,,,,,,,,,,,,,,,,/muse/elements/jaw_clench
2568-11-14 12:07:28.131,,,,,,,,,,,,,,,,,,,,,,,,,,,,,,,,,,,,,,,,,,/muse/elements/blink
2568-11-14 12:07:28.335,0,0,0.7892566319306642,0.6316841284225242,0,0,0.1545871256514298,1.670529315237272,0,0,0.6559333507309731,0.9593805758794881,0,0,0.5676727474064578,0.9588542605664082,0,0,0.2201250685327152,1.144009870454377,1650,1650,817.948717948718,1650,1010.952380952381,-0.188904,0.109924,0.978516,0.523376,-1.114044,-0.231781,410989.010989,120452820.512821,34760805.860806,72.100906,1,2,2,1,2,50.000000
2568-11-14 12:07:29.344,0,0,0.61194010445595,0.6316841284225242,0,0,0.4945614294116751,1.670529315237272,0,0,0.4783058242241905,0.9593805758794881,0,0,0.4674626548637346,0.9588542605664082,0,0,0.2773285206884235,1.144009870454377,135.7875457875458,31.42857142857143,760.7326007326008,0,350.1465201465202,-0.193604,0.105957,0.978577,-0.097198,-1.031799,0.037384,409377.289377,120655091.575092,34878461.538462,72.402695,1,2,2,1,2,50.000000
2568-11-14 12:07:29.438,,,,,,,,,,,,,,,,,,,,,,,,,,,,,,,,,,,,,,,,,,/muse/elements/blink
2568-11-14 12:07:29.705,,,,,,,,,,,,,,,,,,,,,,,,,,,,,,,,,,,,,,,,,,/muse/elements/jaw_clench
2568-11-14 12:07:30.336,0,0,0.5418162444908592,0.9360701753437153,0,0,0.458262273773097,1.468569557680918,0,0,0.447277416299187,1.070706574948623,0,0,0.4854057794580526,1.071080915054297,0,0,0.2335146991277781,1.317065522566798,1393.736263736264,1342.564102564103,826.007326007326,998.4615384615385,865.4945054945056,-0.191162,0.105408,0.977295,0.104675,-1.547699,0.942078,410989.010989,120809010.989011,34952600.732601,72.300011,1,2,2,1,2,50.000000
2568-11-14 12:07:30.474,,,,,,,,,,,,,,,,,,,,,,,,,,,,,,,,,,,,,,,,,,/muse/elements/jaw_clench
2568-11-14 12:07:30.739,,,,,,,,,,,,,,,,,,,,,,,,,,,,,,,,,,,,,,,,,,/muse/elements/blink
2568-11-14 12:07:30.938,,,,,,,,,,,,,,,,,,,,,,,,,,,,,,,,,,,,,,,,,,/muse/elements/jaw_clench
2568-11-14 12:07:31.335,0,0,0.3406412684792002,0.9638854207047857,0,0,0.07765228696476272,1.454872389307573,0,0,0.4448617772360843,1.057477687877759,0,0,0.4546836802159839,1.117596039313094,0,0,0.2949298712829852,1.337548543950195,1650,1650,826.007326007326,1650,1041.575091575092,-0.186646,0.117737,0.970337,-0.074768,-1.353302,-0.807495,410989.010989,120919413.919414,35024322.344322,72.238327,1,2,2,1,2,50.000000
2568-11-14 12:07:32.061,,,,,,,,,,,,,,,,,,,,,,,,,,,,,,,,,,,,,,,,,,/muse/elements/blink
2568-11-14 12:07:32.335,0,0,0.444335467952538,0.9638854207047857,0,0,0.1993898190964309,1.454872389307573,0,0,0.4829439149027115,1.057477687877759,0,0,0.5668087517280824,1.117596039313094,0,0,0.2586692947485952,1.337548543950195,388.4249084249084,637.032967032967,795.7875457875458,1053.260073260073,805.0549450549451,-0.184753,0.104675,0.978210,-0.261688,-2.310333,-1.390686,408571.428571,120734065.934066,34917142.857143,71.943970,1,2,2,1,2,50.000000
2568-11-14 12:07:32.675,,,,,,,,,,,,,,,,,,,,,,,,,,,,,,,,,,,,,,,,,,/muse/elements/jaw_clench
2568-11-14 12:07:32.914,,,,,,,,,,,,,,,,,,,,,,,,,,,,,,,,,,,,,,,,,,/muse/elements/jaw_clench
2568-11-14 12:07:33.287,,,,,,,,,,,,,,,,,,,,,,,,,,,,,,,,,,,,,,,,,,/muse/elements/blink
2568-11-14 12:07:33.350,0,0,0.4577964920611558,0.9638854207047857,0,0,0.293350620629007,1.454872389307573,0,0,0.4390434809174392,1.057477687877759,0,0,0.5898703089781968,1.117596039313094,0,0,0.2953886572791665,1.337548543950195,1380.842490842491,1275.274725274725,808.6813186813187,863.0769230769231,931.1721611721612,-0.190002,0.106079,0.974915,-0.089722,-2.459869,-0.149536,409377.289377,120676849.816850,34876043.956044,71.735306,1,2,2,1,2,50.000000
2568-11-14 12:07:33.977,,,,,,,,,,,,,,,,,,,,,,,,,,,,,,,,,,,,,,,,,,/muse/elements/jaw_clench
2568-11-14 12:07:34.336,0,0,0.4830655543245136,0.9638854207047857,0,0,0.1944557669410518,1.454872389307573,0,0,0.4642443885075013,1.057477687877759,0,0,0.5147686452554405,1.117596039313094,0,0,0.4739156815076211,1.337548543950195,1629.047619047619,1650,828.8278388278388,1650,985.5677655677656,-0.181580,0.114136,0.977356,0.710297,-1.472931,0.276642,409377.289377,120751794.871795,34892967.032967,72.111076,1,2,2,1,2,50.000000
2568-11-14 12:07:34.500,,,,,,,,,,,,,,,,,,,,,,,,,,,,,,,,,,,,,,,,,,/muse/elements/jaw_clench
2568-11-14 12:07:34.588,,,,,,,,,,,,,,,,,,,,,,,,,,,,,,,,,,,,,,,,,,/muse/elements/blink
2568-11-14 12:07:34.830,,,,,,,,,,,,,,,,,,,,,,,,,,,,,,,,,,,,,,,,,,/muse/elements/jaw_clench
2568-11-14 12:07:35.092,,,,,,,,,,,,,,,,,,,,,,,,,,,,,,,,,,,,,,,,,,/muse/elements/jaw_clench
2568-11-14 12:07:35.343,0,0,0.3066165333589156,0.9638854207047857,0,0,0.1896946328464928,1.454872389307573,0,0,0.5814147498692895,1.057477687877759,0,0,0.5090424704270368,1.117596039313094,0,0,0.4007860386368974,1.337548543950195,138.2051282051282,89.04761904761905,756.3003663003664,0,365.0549450549451,-0.180542,0.108948,0.972778,-0.628052,-1.315918,-0.239258,410183.150183,120769523.809524,34946959.706960,72.482033,1,2,2,1,2,50.000000
2568-11-14 12:07:35.708,,,,,,,,,,,,,,,,,,,,,,,,,,,,,,,,,,,,,,,,,,/muse/elements/jaw_clench
2568-11-14 12:07:35.950,,,,,,,,,,,,,,,,,,,,,,,,,,,,,,,,,,,,,,,,,,/muse/elements/blink
2568-11-14 12:07:36.336,0,0,-0.02462839301773577,0.9638854207047857,0,0,0.1018781620566206,1.454872389307573,0,0,0.545029749589078,1.057477687877759,0,0,0.6122937641513827,1.117596039313094,0,0,0.3582623443864693,1.337548543950195,1348.205128205128,1260.3663003663,825.6043956043957,956.959706959707,791.3553113553114,-0.181213,0.108704,0.980347,-0.433655,-1.846771,-0.463562,410989.010989,120608351.648352,34854285.714286,73.269478,1,2,2,1,2,50.000000
2568-11-14 12:07:36.544,,,,,,,,,,,,,,,,,,,,,,,,,,,,,,,,,,,,,,,,,,/muse/elements/jaw_clench
2568-11-14 12:07:37.248,,,,,,,,,,,,,,,,,,,,,,,,,,,,,,,,,,,,,,,,,,/muse/elements/blink
2568-11-14 12:07:37.336,0,0,0.2706636184302525,0.9638854207047857,0,0,0.186738025394786,1.454872389307573,0,0,0.432948846125755,1.057477687877759,0,0,0.6178367157221087,1.117596039313094,0,0,0.2074984920122346,1.337548543950195,1624.615384615385,1650,817.948717948718,1650,757.5091575091575,-0.182678,0.116638,0.977722,0.560760,-0.964508,0.186920,410989.010989,120403663.003663,34772893.772894,73.757851,1,2,2,1,2,50.000000
2568-11-14 12:07:38.152,,,,,,,,,,,,,,,,,,,,,,,,,,,,,,,,,,,,,,,,,,/muse/elements/jaw_clench
2568-11-14 12:07:38.342,0,0,0.2318027993584864,0.9638854207047857,0,0,0.3763055256728778,1.454872389307573,0,0,0.4370721119553934,1.057477687877759,0,0,0.631804815383191,1.117596039313094,0,0,0.2600485816463781,1.337548543950195,145.4578754578755,130.1465201465201,760.7326007326008,6.446886446886447,375.9340659340659,-0.184448,0.103455,0.976074,0.194397,-1.233673,0.545807,408571.428571,120467326.007326,34809157.509158,73.845032,1,2,2,1,2,50.000000
2568-11-14 12:07:38.483,,,,,,,,,,,,,,,,,,,,,,,,,,,,,,,,,,,,,,,,,,/muse/elements/blink
2568-11-14 12:07:38.771,,,,,,,,,,,,,,,,,,,,,,,,,,,,,,,,,,,,,,,,,,/muse/elements/jaw_clench
2568-11-14 12:07:38.990,,,,,,,,,,,,,,,,,,,,,,,,,,,,,,,,,,,,,,,,,,/muse/elements/jaw_clench
2568-11-14 12:07:39.279,,,,,,,,,,,,,,,,,,,,,,,,,,,,,,,,,,,,,,,,,,/muse/elements/jaw_clench
2568-11-14 12:07:39.336,0,0,0.2939235952904375,0.1525817035670705,0,0,0.3103701183027384,1.528617585741692,0,0,0.5523705234777879,1.007403333609693,0,0,0.5538585959370006,1.169253275321542,0,0,0.2459123759741449,1.094815370590317,1426.776556776557,1299.047619047619,660.4029304029305,1245.457875457875,1112.490842490843,-0.184570,0.101868,0.974487,0.224304,-2.078552,0.127106,408571.428571,120633333.333333,34867179.487179,74.115601,1,2,2,1,2,50.000000
2568-11-14 12:07:39.700,,,,,,,,,,,,,,,,,,,,,,,,,,,,,,,,,,,,,,,,,,/muse/elements/jaw_clench
2568-11-14 12:07:39.788,,,,,,,,,,,,,,,,,,,,,,,,,,,,,,,,,,,,,,,,,,/muse/elements/blink
2568-11-14 12:07:39.897,,,,,,,,,,,,,,,,,,,,,,,,,,,,,,,,,,,,,,,,,,/muse/elements/jaw_clench
2568-11-14 12:07:40.351,0,0,0.2493650794432969,0.04358262001919562,0,0,0.2491863151866545,1.512261135098641,0,0,0.02397355449743556,0.9622595323314479,0,0,0.5129184607838708,1.149404083093786,0,0,0.1872225341944713,1.129855642185434,1581.904761904762,1650,855.8241758241759,1650,872.7472527472528,-0.184753,0.105103,0.977539,-0.089722,-2.018738,-0.067291,410183.150183,120370622.710623,34802710.622711,74.285965,1,2,2,1,2,50.000000
2568-11-14 12:07:40.401,,,,,,,,,,,,,,,,,,,,,,,,,,,,,,,,,,,,,,,,,,/muse/elements/jaw_clench
2568-11-14 12:07:40.929,,,,,,,,,,,,,,,,,,,,,,,,,,,,,,,,,,,,,,,,,,/muse/elements/jaw_clench
2568-11-14 12:07:41.106,,,,,,,,,,,,,,,,,,,,,,,,,,,,,,,,,,,,,,,,,,/muse/elements/blink
2568-11-14 12:07:41.340,0,0,0.2493650794432969,0.04358262001919562,0,0,0.2491863151866545,1.512261135098641,0,0,0.02397355449743556,0.9622595323314479,0,0,0.5129184607838708,1.149404083093786,0,0,0.1872225341944713,1.129855642185434,376.3369963369963,446.043956043956,766.3736263736264,686.1904761904763,860.2564102564103,-0.188721,0.101868,0.977112,0.112152,-1.106567,-0.231781,410183.150183,120206227.106227,34667326.007326,74.197731,1,2,2,1,2,50.000000
2568-11-14 12:07:41.807,,,,,,,,,,,,,,,,,,,,,,,,,,,,,,,,,,,,,,,,,,/muse/elements/jaw_clench
2568-11-14 12:07:42.222,,,,,,,,,,,,,,,,,,,,,,,,,,,,,,,,,,,,,,,,,,/muse/elements/jaw_clench
2568-11-14 12:07:42.308,,,,,,,,,,,,,,,,,,,,,,,,,,,,,,,,,,,,,,,,,,/muse/elements/blink
2568-11-14 12:07:42.336,0,0,0.4413986120278566,0.04358262001919562,0,0,0.3440003080039761,1.512261135098641,0,0,0.5178515713749557,0.9622595323314479,0,0,0.5863337052856502,1.149404083093786,0,0,0.4283455966129052,1.129855642185434,1531.135531135531,1325.238095238095,820.3663003663004,1352.637362637363,979.1208791208792,-0.187256,0.105286,0.973206,-0.074768,-1.293488,0.396271,411794.871795,120440732.600733,34809157.509158,74.367699,1,2,2,1,2,50.000000
2568-11-14 12:07:42.831,,,,,,,,,,,,,,,,,,,,,,,,,,,,,,,,,,,,,,,,,,/muse/elements/jaw_clench
2568-11-14 12:07:43.139,,,,,,,,,,,,,,,,,,,,,,,,,,,,,,,,,,,,,,,,,,/muse/elements/jaw_clench
2568-11-14 12:07:43.336,0,0,0.4895817686793693,0.04358262001919562,0,0,0.3525738588106363,1.512261135098641,0,0,0.5879858006012684,0.9622595323314479,0,0,0.4119160102657215,1.149404083093786,0,0,0.3517577767209946,1.129855642185434,1504.945054945055,1623.809523809524,805.4578754578755,1650,782.893772893773,-0.187378,0.104431,0.978943,-0.171967,-1.607513,-0.373840,409377.289377,120571282.051282,34863956.043956,74.703255,1,2,2,1,2,50.000000
2568-11-14 12:07:43.643,,,,,,,,,,,,,,,,,,,,,,,,,,,,,,,,,,,,,,,,,,/muse/elements/blink
2568-11-14 12:07:43.882,,,,,,,,,,,,,,,,,,,,,,,,,,,,,,,,,,,,,,,,,,/muse/elements/jaw_clench
2568-11-14 12:07:44.335,0,0,0.7387141648179049,0.04358262001919562,0,0,0.3165182274890241,1.512261135098641,0,0,0.6237627983883097,0.9622595323314479,0,0,0.5645861258968584,1.149404083093786,0,0,0.5355224370957941,1.129855642185434,348.5347985347985,393.2600732600733,760.3296703296703,589.4871794871796,793.3699633699634,-0.184937,0.104797,0.980042,0.725250,-1.323395,1.158905,410183.150183,120601904.761905,34864761.904762,74.812393,1,2,2,1,2,50.000000
2568-11-14 12:07:44.345,,,,,,,,,,,,,,,,,,,,,,,,,,,,,,,,,,,,,,,,,,/muse/elements/jaw_clench
2568-11-14 12:07:44.938,,,,,,,,,,,,,,,,,,,,,,,,,,,,,,,,,,,,,,,,,,/muse/elements/blink
2568-11-14 12:07:45.203,,,,,,,,,,,,,,,,,,,,,,,,,,,,,,,,,,,,,,,,,,/muse/elements/jaw_clench
2568-11-14 12:07:45.336,0,0,0.649560715490076,0.04358262001919562,0,0,0.1797994704188024,1.512261135098641,0,0,0.4565154581544154,0.9622595323314479,0,0,0.6057556527338432,1.149404083093786,0,0,0.3799623879528974,1.129855642185434,1650,1365.934065934066,819.96336996337,1428.388278388278,1041.575091575092,-0.184570,0.099915,0.981689,-0.261688,-1.166382,-0.254211,410183.150183,120254578.754579,34743076.923077,74.914230,1,2,2,1,2,50.000000
2568-11-14 12:07:46.162,,,,,,,,,,,,,,,,,,,,,,,,,,,,,,,,,,,,,,,,,,/muse/elements/blink
2568-11-14 12:07:46.162,,,,,,,,,,,,,,,,,,,,,,,,,,,,,,,,,,,,,,,,,,/muse/elements/jaw_clench
2568-11-14 12:07:46.336,0,0,0.6440979003188555,0.04358262001919562,0,0,0.4063109881520579,1.512261135098641,0,0,0.3988379783010061,0.9622595323314479,0,0,0.6270907670612853,1.149404083093786,0,0,0.3355076228546681,1.129855642185434,1479.96336996337,1539.194139194139,822.7838827838829,1590.769230769231,800.2197802197802,-0.182068,0.113342,0.978149,1.054230,-2.100983,0.545807,410183.150183,120410109.890110,34805934.065934,75.032974,1,2,2,1,2,50.000000
2568-11-14 12:07:46.490,,,,,,,,,,,,,,,,,,,,,,,,,,,,,,,,,,,,,,,,,,/muse/elements/jaw_clench
2568-11-14 12:07:46.912,,,,,,,,,,,,,,,,,,,,,,,,,,,,,,,,,,,,,,,,,,/muse/elements/jaw_clench
2568-11-14 12:07:47.340,0,0,0.6360522614887649,0.04358262001919562,0,0,0.4923466351284237,1.512261135098641,0,0,0.4056002980296043,0.9622595323314479,0,0,0.5985625032933105,1.149404083093786,0,0,0.3928735350187996,1.129855642185434,700.6959706959707,499.6336996336996,765.9706959706959,397.2893772893773,585.4578754578755,-0.175354,0.099426,0.971252,-0.216827,-1.472931,-0.157013,410183.150183,120630109.890110,34886520.146520,74.977348,1,2,2,1,2,50.000000
2568-11-14 12:07:47.523,,,,,,,,,,,,,,,,,,,,,,,,,,,,,,,,,,,,,,,,,,/muse/elements/blink
2568-11-14 12:07:47.635,,,,,,,,,,,,,,,,,,,,,,,,,,,,,,,,,,,,,,,,,,/muse/elements/jaw_clench
2568-11-14 12:07:47.813,,,,,,,,,,,,,,,,,,,,,,,,,,,,,,,,,,,,,,,,,,/muse/elements/jaw_clench
2568-11-14 12:07:48.125,,,,,,,,,,,,,,,,,,,,,,,,,,,,,,,,,,,,,,,,,,/muse/elements/jaw_clench
2568-11-14 12:07:48.337,0,0,0.563116715567742,0.04358262001919562,0,0,0.3649726910322983,1.512261135098641,0,0,0.3939810234941604,0.9622595323314479,0,0,0.6974562159695047,1.149404083093786,0,0,0.3475016130157673,1.129855642185434,1650,1650,839.3040293040293,1585.128205128205,892.0879120879121,-0.175415,0.097412,0.977722,-0.157013,-2.198181,-0.687866,410989.010989,120339194.139194,34780952.380952,75.289742,1,2,2,1,2,50.000000
2568-11-14 12:07:48.741,,,,,,,,,,,,,,,,,,,,,,,,,,,,,,,,,,,,,,,,,,/muse/elements/blink
2568-11-14 12:07:48.741,,,,,,,,,,,,,,,,,,,,,,,,,,,,,,,,,,,,,,,,,,/muse/elements/jaw_clench
2568-11-14 12:07:49.027,,,,,,,,,,,,,,,,,,,,,,,,,,,,,,,,,,,,,,,,,,/muse/elements/jaw_clench
2568-11-14 12:07:49.336,0,0,0.4960486663252086,0.04358262001919562,0,0,0.3805217661539744,1.512261135098641,0,0,0.3322124468584537,0.9622595323314479,0,0,0.6710373015032978,1.149404083093786,0,0,0.3708164807340364,1.129855642185434,1346.996336996337,1452.967032967033,803.040293040293,1486.410256410256,827.2161172161173,-0.178711,0.105164,0.975525,-0.142059,-1.884155,-0.052338,409377.289377,120331135.531136,34759194.139194,75.792114,1,2,2,1,2,50.000000
2568-11-14 12:07:49.714,,,,,,,,,,,,,,,,,,,,,,,,,,,,,,,,,,,,,,,,,,/muse/elements/jaw_clench
2568-11-14 12:07:50.107,,,,,,,,,,,,,,,,,,,,,,,,,,,,,,,,,,,,,,,,,,/muse/elements/blink
2568-11-14 12:07:50.242,,,,,,,,,,,,,,,,,,,,,,,,,,,,,,,,,,,,,,,,,,/muse/elements/jaw_clench
2568-11-14 12:07:50.335,0,0,0.1303786583937927,0.04358262001919562,0,0,0.2555298746371237,1.512261135098641,0,0,0.4961199446100122,0.9622595323314479,0,0,0.5647718661977535,1.149404083093786,0,0,0.424147079541102,1.129855642185434,0,74.13919413919415,758.7179487179487,100.7326007326007,614.0659340659341,-0.181335,0.101746,0.978516,-0.082245,-0.792542,-0.194397,409377.289377,120410109.890110,34798681.318681,75.954247,1,2,2,1,2,50.000000
2568-11-14 12:07:50.420,,,,,,,,,,,,,,,,,,,,,,,,,,,,,,,,,,,,,,,,,,/muse/elements/jaw_clench
2568-11-14 12:07:51.336,0,0,0.4081719886777667,0.04358262001919562,0,0,0.2968266229361142,1.512261135098641,0,0,0.563393554722419,0.9622595323314479,0,0,0.5593400986629636,1.149404083093786,0,0,0.2267936367723871,1.129855642185434,1650,1650,812.7106227106227,1650,1038.351648351648,-0.175293,0.111816,0.974548,1.151428,-2.504730,0.807495,410989.010989,120531794.871795,34869597.069597,76.420494,1,2,2,1,2,50.000000
2568-11-14 12:07:51.381,,,,,,,,,,,,,,,,,,,,,,,,,,,,,,,,,,,,,,,,,,/muse/elements/blink
2568-11-14 12:07:52.086,,,,,,,,,,,,,,,,,,,,,,,,,,,,,,,,,,,,,,,,,,/muse/elements/jaw_clench
2568-11-14 12:07:52.344,0,0,0.483026424028829,0.04358262001919562,0,0,0.3816359983329552,1.512261135098641,0,0,0.5996057006118836,0.9622595323314479,0,0,0.6191836239203674,1.149404083093786,0,0,0.1447055114159693,1.129855642185434,1023.443223443223,1356.666666666667,784.9084249084249,1297.435897435897,782.893772893773,-0.173340,0.112610,0.978455,-0.456085,-1.457977,0.029907,409377.289377,120182857.142857,34685860.805861,76.680374,1,2,2,1,2,50.000000
2568-11-14 12:07:52.589,,,,,,,,,,,,,,,,,,,,,,,,,,,,,,,,,,,,,,,,,,/muse/elements/blink
2568-11-14 12:07:53.336,0,0,0.6003595227652415,0.04358262001919562,0,0,0.3488801878968438,1.512261135098641,0,0,0.6119216660818301,0.9622595323314479,0,0,0.7104323327996276,1.149404083093786,0,0,0.2873760826675593,1.129855642185434,0,54.39560439560439,761.1355311355312,123.2967032967033,739.7802197802198,-0.184998,0.109253,0.977112,0.575714,-0.934601,0.560760,410989.010989,120319047.619048,34764029.304029,76.545235,1,2,2,1,2,50.000000
2568-11-14 12:07:53.799,,,,,,,,,,,,,,,,,,,,,,,,,,,,,,,,,,,,,,,,,,/muse/elements/jaw_clench
2568-11-14 12:07:53.887,,,,,,,,,,,,,,,,,,,,,,,,,,,,,,,,,,,,,,,,,,/muse/elements/blink
2568-11-14 12:07:54.019,,,,,,,,,,,,,,,,,,,,,,,,,,,,,,,,,,,,,,,,,,/muse/elements/jaw_clench
2568-11-14 12:07:54.341,0,0,0.4185872803019065,0.04358262001919562,0,0,0.3410251622080442,1.512261135098641,0,0,0.7413081687952754,0.9622595323314479,0,0,0.5736122165608046,1.149404083093786,0,0,0.351373388030685,1.129855642185434,1650,1650,818.7545787545788,1650,1340.549450549451,-0.184448,0.111816,0.975708,-0.067291,-0.859833,0.157013,411794.871795,120568864.468864,34854285.714286,76.383423,1,2,2,1,2,50.000000
2568-11-14 12:07:54.593,,,,,,,,,,,,,,,,,,,,,,,,,,,,,,,,,,,,,,,,,,/muse/elements/jaw_clench
2568-11-14 12:07:55.205,,,,,,,,,,,,,,,,,,,,,,,,,,,,,,,,,,,,,,,,,,/muse/elements/blink
2568-11-14 12:07:55.317,,,,,,,,,,,,,,,,,,,,,,,,,,,,,,,,,,,,,,,,,,/muse/elements/jaw_clench
2568-11-14 12:07:55.336,0,0,0.2679615624242244,0.04358262001919562,0,0,0.4696780739012711,1.512261135098641,0,0,0.8044828633344364,0.9622595323314479,0,0,0.6178097399015164,1.149404083093786,0,0,0.4200379977949047,1.129855642185434,1068.571428571429,1362.710622710623,794.1758241758242,1317.179487179487,871.1355311355312,-0.172424,0.106140,0.973999,-0.650482,-1.876678,-1.487885,409377.289377,120663150.183150,34903443.223443,76.074982,1,2,2,1,2,50.000000
2568-11-14 12:07:56.238,,,,,,,,,,,,,,,,,,,,,,,,,,,,,,,,,,,,,,,,,,/muse/elements/jaw_clench
2568-11-14 12:07:56.336,0,0,0.1092600584250432,0.04358262001919562,0,0,0.2936246641684861,1.512261135098641,0,0,0.7706880420777175,0.9622595323314479,0,0,0.540855112396361,1.149404083093786,0,0,0.4481387330502613,1.129855642185434,0,85.42124542124543,754.6886446886447,157.5457875457876,718.4249084249085,-0.164917,0.083923,0.980957,-0.336456,-1.637421,-1.315918,410183.150183,120256996.336996,34726959.706960,75.548965,1,2,2,1,2,50.000000
2568-11-14 12:07:56.525,,,,,,,,,,,,,,,,,,,,,,,,,,,,,,,,,,,,,,,,,,/muse/elements/blink
2568-11-14 12:07:56.525,,,,,,,,,,,,,,,,,,,,,,,,,,,,,,,,,,,,,,,,,,/muse/elements/jaw_clench
2568-11-14 12:07:57.336,0,0,0.456088813881885,0.04358262001919562,0,0,0.3684742004433111,1.512261135098641,0,0,0.5296315187214017,0.9622595323314479,0,0,0.5541340084244883,1.149404083093786,0,0,0.4625834364441284,1.129855642185434,1650,1650,846.1538461538462,1612.930402930403,1026.263736263736,-0.178162,0.076355,0.984436,0.097198,-1.749573,-0.089722,410183.150183,120354505.494505,34784175.824176,75.411903,1,2,2,1,2,50.000000
2568-11-14 12:07:57.888,,,,,,,,,,,,,,,,,,,,,,,,,,,,,,,,,,,,,,,,,,/muse/elements/blink
2568-11-14 12:07:58.343,0,0,0.52973995482573,0.04358262001919562,0,0,0.03376032298240628,1.512261135098641,0,0,0.4357371193300332,0.9622595323314479,0,0,0.5795529538968863,1.149404083093786,0,0,0.3601874753263224,1.129855642185434,1362.710622710623,1506.556776556777,802.6373626373627,1494.871794871795,911.4285714285714,-0.175354,0.049316,0.982422,-1.375732,-2.482300,-1.779480,411794.871795,120499560.439560,34839780.219780,75.461563,1,2,2,1,2,50.000000
2568-11-14 12:07:58.592,,,,,,,,,,,,,,,,,,,,,,,,,,,,,,,,,,,,,,,,,,/muse/elements/jaw_clench
2568-11-14 12:07:59.183,,,,,,,,,,,,,,,,,,,,,,,,,,,,,,,,,,,,,,,,,,/muse/elements/blink
2568-11-14 12:07:59.183,,,,,,,,,,,,,,,,,,,,,,,,,,,,,,,,,,,,,,,,,,/muse/elements/jaw_clench
2568-11-14 12:07:59.336,0,0,0.5711007189703659,0.04358262001919562,0,0,-0.3078326461421194,1.512261135098641,0,0,0.4005097866526199,0.9622595323314479,0,0,0.6102313273147841,1.149404083093786,0,0,0.4477923040654416,1.129855642185434,155.5311355311355,269.96336996337,774.0293040293041,347.3260073260074,873.5531135531136,-0.175842,0.050049,0.979919,1.465454,-1.061707,2.265472,411794.871795,120567252.747253,34872014.652015,75.808281,1,2,2,1,2,50.000000
2568-11-14 12:07:59.383,,,,,,,,,,,,,,,,,,,,,,,,,,,,,,,,,,,,,,,,,,/muse/elements/jaw_clench
2568-11-14 12:07:59.559,,,,,,,,,,,,,,,,,,,,,,,,,,,,,,,,,,,,,,,,,,/muse/elements/jaw_clench
2568-11-14 12:08:00.084,,,,,,,,,,,,,,,,,,,,,,,,,,,,,,,,,,,,,,,,,,/muse/elements/jaw_clench
2568-11-14 12:08:00.336,0,0,0.291856171275699,0.04358262001919562,0,0,0.03734148630520151,1.512261135098641,0,0,0.4768808827974951,0.9622595323314479,0,0,0.5688391872830542,1.149404083093786,0,0,0.3185201248862281,1.129855642185434,1650,1501.318681318681,834.8717948717949,1481.978021978022,834.0659340659341,-0.179199,0.058472,0.981628,0.605621,-1.659851,0.201874,410989.010989,120240073.260073,34698754.578755,76.156067,1,2,2,1,2,50.000000
2568-11-14 12:08:00.413,,,,,,,,,,,,,,,,,,,,,,,,,,,,,,,,,,,,,,,,,,/muse/elements/jaw_clench
2568-11-14 12:08:00.523,,,,,,,,,,,,,,,,,,,,,,,,,,,,,,,,,,,,,,,,,,/muse/elements/blink
2568-11-14 12:08:01.341,0,0,0.4357202476021473,0.04358262001919562,0,0,0.220414210234151,1.512261135098641,0,0,0.3904328272043247,0.9622595323314479,0,0,0.4869403364879252,1.149404083093786,0,0,0.2496891472172394,1.129855642185434,1524.285714285714,1626.227106227106,824.7985347985348,1650,789.7435897435897,-0.181458,0.066589,0.977234,0.927124,-1.338348,0.897217,411794.871795,120317435.897436,34772893.772894,75.608391,1,2,2,1,2,50.000000
2568-11-14 12:08:01.808,,,,,,,,,,,,,,,,,,,,,,,,,,,,,,,,,,,,,,,,,,/muse/elements/blink
2568-11-14 12:08:01.808,,,,,,,,,,,,,,,,,,,,,,,,,,,,,,,,,,,,,,,,,,/muse/elements/jaw_clench
2568-11-14 12:08:02.343,0,0,0.5924235926399211,0.04358262001919562,0,0,0.09853032400122121,1.512261135098641,0,0,0.2952575221789147,0.9622595323314479,0,0,0.454276933997297,1.149404083093786,0,0,0.2683273579739858,1.129855642185434,138.6080586080586,99.12087912087912,769.1941391941392,0,532.2710622710623,-0.191345,0.074890,0.978394,0.560760,-1.540222,0.366364,410989.010989,120486666.666667,34823663.003663,75.183205,1,2,2,1,2,50.000000
2568-11-14 12:08:03.033,,,,,,,,,,,,,,,,,,,,,,,,,,,,,,,,,,,,,,,,,,/muse/elements/jaw_clench
2568-11-14 12:08:03.231,,,,,,,,,,,,,,,,,,,,,,,,,,,,,,,,,,,,,,,,,,/muse/elements/blink
2568-11-14 12:08:03.335,0,0,0.3832182319940813,0.04358262001919562,0,0,0.2359323051558175,1.512261135098641,0,0,0.2582778099832232,0.9622595323314479,0,0,0.4982218688825997,1.149404083093786,0,0,0.3629991072444293,1.129855642185434,1247.069597069597,1137.069597069597,817.1428571428571,995.6410256410256,795.3846153846154,-0.187439,0.069519,0.985229,0.508423,-1.704712,1.039276,409377.289377,120492307.692308,34832527.472527,75.347153,1,2,2,1,2,50.000000
2568-11-14 12:08:04.071,,,,,,,,,,,,,,,,,,,,,,,,,,,,,,,,,,,,,,,,,,/muse/elements/jaw_clench
2568-11-14 12:08:04.335,0,0,0.5196823854961383,0.04358262001919562,0,0,0.2756423697538178,1.512261135098641,0,0,0.4026659705680076,0.9622595323314479,0,0,0.4927817009365204,1.149404083093786,0,0,0.3585043650725512,1.129855642185434,1650,1650,838.901098901099,1650,713.5897435897436,-0.193176,0.068176,0.981812,0.104675,-0.628052,0.396271,410183.150183,120207032.967033,34709230.769231,74.907059,1,2,2,1,2,50.000000
2568-11-14 12:08:04.581,,,,,,,,,,,,,,,,,,,,,,,,,,,,,,,,,,,,,,,,,,/muse/elements/blink
2568-11-14 12:08:04.581,,,,,,,,,,,,,,,,,,,,,,,,,,,,,,,,,,,,,,,,,,/muse/elements/jaw_clench
2568-11-14 12:08:04.958,,,,,,,,,,,,,,,,,,,,,,,,,,,,,,,,,,,,,,,,,,/muse/elements/jaw_clench
2568-11-14 12:08:05.336,0,0,0.3985017500604642,0.04358262001919562,0,0,0.4779666344769585,1.512261135098641,0,0,0.3372183333268859,0.9622595323314479,0,0,0.5889192338737604,1.149404083093786,0,0,0.4204789676206399,1.129855642185434,0,0,759.92673992674,0,601.5750915750916,-0.201660,0.075745,0.979126,-0.104675,-0.957031,0.037384,410183.150183,120327106.227106,34780146.520147,75.090187,1,2,2,1,2,50.000000
2568-11-14 12:08:05.559,,,,,,,,,,,,,,,,,,,,,,,,,,,,,,,,,,,,,,,,,,/muse/elements/jaw_clench
2568-11-14 12:08:05.998,,,,,,,,,,,,,,,,,,,,,,,,,,,,,,,,,,,,,,,,,,/muse/elements/blink
2568-11-14 12:08:06.336,0,0,0.3390870754745744,0.04358262001919562,0,0,0.4741183506340192,1.512261135098641,0,0,0.3618303770393297,0.9622595323314479,0,0,0.7003126813166619,1.149404083093786,0,0,0.5523186689546931,1.129855642185434,713.5897435897436,331.2087912087912,794.5787545787546,281.6483516483516,967.4358974358975,-0.199036,0.066406,0.978516,-0.037384,-1.188812,-0.082245,411794.871795,120463296.703297,34848644.688645,75.459167,1,2,2,1,2,50.000000
2568-11-14 12:08:06.608,,,,,,,,,,,,,,,,,,,,,,,,,,,,,,,,,,,,,,,,,,/muse/elements/jaw_clench
2568-11-14 12:08:06.784,,,,,,,,,,,,,,,,,,,,,,,,,,,,,,,,,,,,,,,,,,/muse/elements/jaw_clench
2568-11-14 12:08:07.351,0,0,0.04476939148913805,0.04358262001919562,0,0,0.308480276117743,1.512261135098641,0,0,0.5799647609634311,0.9622595323314479,0,0,0.7061836085466382,1.149404083093786,0,0,0.3286652491263533,1.129855642185434,1650,1496.483516483516,823.1868131868132,1301.465201465202,742.1978021978023,-0.201599,0.071350,0.978271,-0.149536,-0.844879,0.164490,410989.010989,119993479.853480,34634285.714286,76.072617,1,2,2,1,2,50.000000
2568-11-14 12:08:07.398,,,,,,,,,,,,,,,,,,,,,,,,,,,,,,,,,,,,,,,,,,/muse/elements/blink
2568-11-14 12:08:07.488,,,,,,,,,,,,,,,,,,,,,,,,,,,,,,,,,,,,,,,,,,/muse/elements/jaw_clench
2568-11-14 12:08:08.015,,,,,,,,,,,,,,,,,,,,,,,,,,,,,,,,,,,,,,,,,,/muse/elements/jaw_clench
2568-11-14 12:08:08.336,0,0,0.04770367161950464,0.04358262001919562,0,0,0.248390869853033,1.512261135098641,0,0,0.706207142677158,0.9622595323314479,0,0,0.7498598264971007,1.149404083093786,0,0,0.3750011140799826,1.129855642185434,1578.278388278388,1650,816.3369963369963,1650,1008.534798534799,-0.205750,0.080383,0.976746,0.747681,-0.919647,0.179443,410989.010989,120161904.761905,34704395.604396,76.841118,1,2,2,1,2,50.000000
2568-11-14 12:08:08.714,,,,,,,,,,,,,,,,,,,,,,,,,,,,,,,,,,,,,,,,,,/muse/elements/blink
2568-11-14 12:08:09.330,,,,,,,,,,,,,,,,,,,,,,,,,,,,,,,,,,,,,,,,,,/muse/elements/jaw_clench
2568-11-14 12:08:09.344,0,0,0.3614912961621271,0.04358262001919562,0,0,0.2369098618898803,1.512261135098641,0,0,0.55520011931504,0.9622595323314479,0,0,0.7243003674747901,1.149404083093786,0,0,0.4471894919822965,1.129855642185434,113.2234432234432,0,759.5238095238095,0,631.7948717948718,-0.202209,0.077576,0.980225,0.052338,-1.293488,0.089722,410183.150183,120377069.597070,34784981.684982,77.159088,1,2,2,1,2,50.000000
2568-11-14 12:08:10.085,,,,,,,,,,,,,,,,,,,,,,,,,,,,,,,,,,,,,,,,,,/muse/elements/blink
2568-11-14 12:08:10.267,,,,,,,,,,,,,,,,,,,,,,,,,,,,,,,,,,,,,,,,,,/muse/elements/jaw_clench
2568-11-14 12:08:10.336,0,0,0.4432283815517375,0.04358262001919562,0,0,0.3604826653730616,1.512261135098641,0,0,0.4284053987399276,0.9622595323314479,0,0,0.539940488471922,1.149404083093786,0,0,0.3067822235053301,1.129855642185434,1244.652014652015,1033.516483516484,812.7106227106227,596.3369963369963,359.4139194139194,-0.203003,0.087158,0.985596,0.291595,-1.330872,1.218719,410183.150183,120199780.219780,34735018.315018,77.590179,1,2,2,1,2,50.000000
2568-11-14 12:08:10.682,,,,,,,,,,,,,,,,,,,,,,,,,,,,,,,,,,,,,,,,,,/muse/elements/jaw_clench
2568-11-14 12:08:11.147,,,,,,,,,,,,,,,,,,,,,,,,,,,,,,,,,,,,,,,,,,/muse/elements/jaw_clench
2568-11-14 12:08:11.336,0,0,0.7357281963971216,0.04358262001919562,0,0,0.4484941732863715,1.512261135098641,0,0,0.6363492842422114,0.9622595323314479,0,0,0.7259997618640736,1.149404083093786,0,0,0.4872801951779108,1.129855642185434,1650,1650,834.4688644688645,1579.487179487179,1098.791208791209,-0.200256,0.093201,0.978760,0.732727,-1.315918,0.194397,411794.871795,120082124.542125,34693113.553114,77.942116,1,2,2,1,2,50.000000
2568-11-14 12:08:11.391,,,,,,,,,,,,,,,,,,,,,,,,,,,,,,,,,,,,,,,,,,/muse/elements/jaw_clench
2568-11-14 12:08:11.482,,,,,,,,,,,,,,,,,,,,,,,,,,,,,,,,,,,,,,,,,,/muse/elements/blink
2568-11-14 12:08:11.901,,,,,,,,,,,,,,,,,,,,,,,,,,,,,,,,,,,,,,,,,,/muse/elements/jaw_clench
2568-11-14 12:08:12.097,,,,,,,,,,,,,,,,,,,,,,,,,,,,,,,,,,,,,,,,,,/muse/elements/jaw_clench
2568-11-14 12:08:12.337,0,0,0.5192569085384923,0.04358262001919562,0,0,0.5450797644851663,1.512261135098641,0,0,0.6475818000695184,0.9622595323314479,0,0,0.861270878564153,1.149404083093786,0,0,0.3991982876831413,1.129855642185434,0,0,729.3040293040293,0,933.5897435897436,-0.195740,0.092163,0.978271,-0.194397,-1.233673,0.351410,411794.871795,120274725.274725,34779340.659341,77.570824,1,2,2,1,2,50.000000
2568-11-14 12:08:12.606,,,,,,,,,,,,,,,,,,,,,,,,,,,,,,,,,,,,,,,,,,/muse/elements/jaw_clench
2568-11-14 12:08:12.802,,,,,,,,,,,,,,,,,,,,,,,,,,,,,,,,,,,,,,,,,,/muse/elements/blink
2568-11-14 12:08:13.348,0,0,0.1682083580044974,0.04358262001919562,0,0,0.2200942650714386,1.512261135098641,0,0,0.4644609126679266,0.9622595323314479,0,0,0.9145757786332501,1.149404083093786,0,0,0.3758836799463127,1.129855642185434,268.7545787545787,208.7179487179487,776.4468864468864,66.48351648351648,357.8021978021978,-0.207397,0.091858,0.970703,0.343933,-0.291595,0.291595,411794.871795,120459267.399267,34858315.018315,76.988464,1,2,2,1,2,50.000000
2568-11-14 12:08:14.209,,,,,,,,,,,,,,,,,,,,,,,,,,,,,,,,,,,,,,,,,,/muse/elements/blink
2568-11-14 12:08:14.338,0,0,0.1366323434249393,0.04358262001919562,0,0,0.1851847318504231,1.512261135098641,0,0,0.4656859719039979,0.9622595323314479,0,0,0.7479943313831101,1.149404083093786,0,0,0.4390478932257075,1.129855642185434,1421.941391941392,1326.446886446887,828.8278388278388,1310.732600732601,907.3992673992674,-0.205200,0.097717,0.973633,-0.029907,-2.953339,-1.420593,410989.010989,120307765.567766,34787399.267399,76.805702,1,2,2,1,2,50.000000
2568-11-14 12:08:14.519,,,,,,,,,,,,,,,,,,,,,,,,,,,,,,,,,,,,,,,,,,/muse/elements/jaw_clench
2568-11-14 12:08:15.347,0,0,0.1927012332884638,0.04358262001919562,0,0,0.291734432486428,1.512261135098641,0,0,0.3984784893416967,0.9622595323314479,0,0,0.6936184158734779,1.149404083093786,0,0,0.5015590515321552,1.129855642185434,70.10989010989012,224.029304029304,745.4212454212454,204.2857142857143,721.6483516483516,-0.216675,0.094421,0.969543,0.411224,-0.717773,0.351410,410183.150183,120158681.318681,34730183.150183,76.428970,1,2,2,1,2,50.000000
2568-11-14 12:08:15.552,,,,,,,,,,,,,,,,,,,,,,,,,,,,,,,,,,,,,,,,,,/muse/elements/blink
2568-11-14 12:08:15.927,,,,,,,,,,,,,,,,,,,,,,,,,,,,,,,,,,,,,,,,,,/muse/elements/jaw_clench
2568-11-14 12:08:16.267,,,,,,,,,,,,,,,,,,,,,,,,,,,,,,,,,,,,,,,,,,/muse/elements/jaw_clench
2568-11-14 12:08:16.336,0,0,0.3225967663079883,0.04358262001919562,0,0,0.1873183042496945,1.512261135098641,0,0,0.4358382604214898,0.9622595323314479,0,0,0.6106008539040134,1.149404083093786,0,0,0.397179101247571,1.129855642185434,0,0,743.0036630036631,0,300.5860805860806,-0.222473,0.097412,0.967651,0.343933,-1.286011,0.934601,410183.150183,120382710.622711,34797069.597070,75.898140,1,2,2,1,2,50.000000
2568-11-14 12:08:16.861,,,,,,,,,,,,,,,,,,,,,,,,,,,,,,,,,,,,,,,,,,/muse/elements/blink
2568-11-14 12:08:17.337,0,0,0.5657775794844571,0.04358262001919562,0,0,0.3939702145335003,1.512261135098641,0,0,0.4850396022457993,0.9622595323314479,0,0,0.6114324863647929,1.149404083093786,0,0,0.4969174530361864,1.129855642185434,1031.501831501831,588.6813186813187,806.6666666666667,574.1758241758242,557.6556776556777,-0.218628,0.096375,0.975952,-0.687866,-1.001892,-0.770111,410989.010989,120421391.941392,34843809.523810,76.107529,1,2,2,1,2,50.000000
2568-11-14 12:08:17.984,,,,,,,,,,,,,,,,,,,,,,,,,,,,,,,,,,,,,,,,,,/muse/elements/jaw_clench
2568-11-14 12:08:18.184,,,,,,,,,,,,,,,,,,,,,,,,,,,,,,,,,,,,,,,,,,/muse/elements/blink
2568-11-14 12:08:18.272,,,,,,,,,,,,,,,,,,,,,,,,,,,,,,,,,,,,,,,,,,/muse/elements/jaw_clench
2568-11-14 12:08:18.337,0,0,0.4015788650278413,0.04358262001919562,0,0,0.3912417324575409,1.512261135098641,0,0,0.2038106976315318,0.9622595323314479,0,0,0.569697508032058,1.149404083093786,0,0,0.3047801233687276,1.129855642185434,1650,1635.494505494506,838.4981684981685,1524.688644688645,822.3809523809524,-0.221680,0.093018,0.973877,-0.044861,-1.487885,0.590668,410183.150183,120212673.992674,34764029.304029,75.549774,1,2,2,1,2,50.000000
2568-11-14 12:08:19.215,,,,,,,,,,,,,,,,,,,,,,,,,,,,,,,,,,,,,,,,,,/muse/elements/jaw_clench
2568-11-14 12:08:19.344,0,0,0.2958750099850604,0.04358262001919562,0,0,0.06315883045563078,1.512261135098641,0,0,0.3975328256944745,0.9622595323314479,0,0,0.706890086763125,1.149404083093786,0,0,0.3175712894811141,1.129855642185434,0,0,757.9120879120879,13.6996336996337,375.9340659340659,-0.213806,0.098999,0.972168,0.067291,-1.211243,0.067291,410989.010989,120109523.809524,34723736.263736,75.166595,1,2,2,1,2,50.000000
2568-11-14 12:08:19.413,,,,,,,,,,,,,,,,,,,,,,,,,,,,,,,,,,,,,,,,,,/muse/elements/jaw_clench
2568-11-14 12:08:19.590,,,,,,,,,,,,,,,,,,,,,,,,,,,,,,,,,,,,,,,,,,/muse/elements/blink
2568-11-14 12:08:20.009,,,,,,,,,,,,,,,,,,,,,,,,,,,,,,,,,,,,,,,,,,/muse/elements/jaw_clench
2568-11-14 12:08:20.337,0,0,0.455126973568984,0.04358262001919562,0,0,0.2058788240228631,1.512261135098641,0,0,0.475109649828699,0.9622595323314479,0,0,0.6712089374211149,1.149404083093786,0,0,0.2880375860783438,1.129855642185434,145.4578754578755,53.99267399267399,784.1025641025641,52.38095238095238,891.2820512820513,-0.217102,0.099060,0.971680,-0.231781,-1.360779,-0.710297,410183.150183,120201391.941392,34754358.974359,75.163063,1,2,2,1,2,50.000000
2568-11-14 12:08:20.799,,,,,,,,,,,,,,,,,,,,,,,,,,,,,,,,,,,,,,,,,,/muse/elements/blink
2568-11-14 12:08:21.234,,,,,,,,,,,,,,,,,,,,,,,,,,,,,,,,,,,,,,,,,,/muse/elements/jaw_clench
2568-11-14 12:08:21.337,0,0,0.6894560734998391,0.04358262001919562,0,0,0.5388638231105698,1.512261135098641,0,0,0.576922521666644,0.9622595323314479,0,0,0.7442179659438124,1.149404083093786,0,0,0.3052459103872466,1.129855642185434,815.1282051282052,823.1868131868132,776.8498168498169,877.1794871794872,1134.652014652015,-0.216125,0.099915,0.976379,0.074768,-1.869202,0.134583,410183.150183,120343223.443223,34805934.065934,74.662712,1,2,2,1,2,50.000000
2568-11-14 12:08:21.755,,,,,,,,,,,,,,,,,,,,,,,,,,,,,,,,,,,,,,,,,,/muse/elements/jaw_clench
2568-11-14 12:08:22.128,,,,,,,,,,,,,,,,,,,,,,,,,,,,,,,,,,,,,,,,,,/muse/elements/blink
2568-11-14 12:08:22.340,0,0,0.4933840249410167,0.04358262001919562,0,0,0.4665754370636455,1.512261135098641,0,0,0.6190622217005829,0.9622595323314479,0,0,0.7303928219600648,1.149404083093786,0,0,0.3445718919789764,1.129855642185434,0,0,747.8388278388279,0,383.5897435897436,-0.205933,0.099792,0.971558,0.373840,-2.175751,0.672913,409377.289377,120219120.879121,34758388.278388,73.955254,1,2,2,1,2,50.000000
2568-11-14 12:08:22.637,,,,,,,,,,,,,,,,,,,,,,,,,,,,,,,,,,,,,,,,,,/muse/elements/jaw_clench
2568-11-14 12:08:23.337,0,0,0.6842411341836674,0.04358262001919562,0,0,0.2185944797534034,1.512261135098641,0,0,0.5287653892994768,0.9622595323314479,0,0,0.58136023614149,1.149404083093786,0,0,0.3148995772201074,1.129855642185434,226.8498168498168,71.31868131868131,751.8681318681319,257.0695970695971,549.1941391941392,-0.190369,0.117126,0.976074,1.233673,-2.332764,4.613190,411794.871795,119850842.490842,34596410.256410,74.051559,1,2,2,1,2,50.000000
2568-11-14 12:08:23.558,,,,,,,,,,,,,,,,,,,,,,,,,,,,,,,,,,,,,,,,,,/muse/elements/blink
2568-11-14 12:08:23.972,,,,,,,,,,,,,,,,,,,,,,,,,,,,,,,,,,,,,,,,,,/muse/elements/jaw_clench
2568-11-14 12:08:24.343,0,0,0.6926222706158101,0.04358262001919562,0,0,0.2134066382776366,1.512261135098641,0,0,0.5932967375181813,0.9622595323314479,0,0,0.7381196310164114,1.149404083093786,0,0,0.1710377473571111,1.129855642185434,1166.483516483516,1229.74358974359,797.3992673992674,1450.549450549451,1408.241758241758,-0.185791,0.136963,0.977844,0.343933,-1.039276,-1.099091,410989.010989,119891135.531136,34624615.384615,73.770477,1,2,2,1,2,50.000000
2568-11-14 12:08:24.686,,,,,,,,,,,,,,,,,,,,,,,,,,,,,,,,,,,,,,,,,,/muse/elements/jaw_clench
2568-11-14 12:08:24.886,,,,,,,,,,,,,,,,,,,,,,,,,,,,,,,,,,,,,,,,,,/muse/elements/blink
2568-11-14 12:08:24.886,,,,,,,,,,,,,,,,,,,,,,,,,,,,,,,,,,,,,,,,,,/muse/elements/jaw_clench
2568-11-14 12:08:25.310,,,,,,,,,,,,,,,,,,,,,,,,,,,,,,,,,,,,,,,,,,/muse/elements/jaw_clench
2568-11-14 12:08:25.336,0,0,0.4987051328907035,0.04358262001919562,0,0,0.213400405610052,1.512261135098641,0,0,0.6798449788688837,0.9622595323314479,0,0,0.8010099816219751,1.149404083093786,0,0,0.1676874148956817,1.129855642185434,116.8498168498168,481.5018315018315,759.5238095238095,576.996336996337,639.4505494505495,-0.185120,0.124878,0.968384,-0.321503,-2.400055,-1.562653,410989.010989,120095018.315018,34705201.465201,73.840775,1,2,2,1,2,50.000000
2568-11-14 12:08:26.194,,,,,,,,,,,,,,,,,,,,,,,,,,,,,,,,,,,,,,,,,,/muse/elements/blink
2568-11-14 12:08:26.337,0,0,0.8176983676848713,0.04358262001919562,0,0,0.2271468105713086,1.512261135098641,0,0,0.7446162409213986,0.9622595323314479,0,0,0.5335576564687338,1.149404083093786,0,0,0.3063125715218284,1.129855642185434,0,0,753.4798534798535,0,674.5054945054945,-0.184265,0.122009,0.977356,-0.059814,-0.000000,-0.568237,409377.289377,120173186.813187,34735824.175824,74.402718,1,2,2,1,2,50.000000
2568-11-14 12:08:26.889,,,,,,,,,,,,,,,,,,,,,,,,,,,,,,,,,,,,,,,,,,/muse/elements/jaw_clench
2568-11-14 12:08:27.129,,,,,,,,,,,,,,,,,,,,,,,,,,,,,,,,,,,,,,,,,,/muse/elements/jaw_clench
2568-11-14 12:08:27.337,0,0,0.5084371321759503,0.04358262001919562,0,0,0.3663108015535352,1.512261135098641,0,0,0.7484960475107356,0.9622595323314479,0,0,0.635311489500462,1.149404083093786,0,0,0.2927813489641468,1.129855642185434,1637.106227106227,1650,831.6483516483516,1650,1338.131868131868,-0.191162,0.122620,0.975525,-0.179443,-1.891632,-0.456085,410183.150183,119916117.216117,34649597.069597,74.199257,1,2,2,1,2,50.000000
2568-11-14 12:08:27.412,,,,,,,,,,,,,,,,,,,,,,,,,,,,,,,,,,,,,,,,,,/muse/elements/jaw_clench
2568-11-14 12:08:27.501,,,,,,,,,,,,,,,,,,,,,,,,,,,,,,,,,,,,,,,,,,/muse/elements/blink
2568-11-14 12:08:28.336,0,0,0.4562232117106234,0.04358262001919562,0,0,0.3983511822561082,1.512261135098641,0,0,0.5768695207425049,0.9622595323314479,0,0,0.6552754358218061,1.149404083093786,0,0,0.2796185149828066,1.129855642185434,890.8791208791209,974.2857142857143,806.2637362637363,924.7252747252747,713.1868131868132,-0.191650,0.124756,0.973450,-0.448608,-0.986938,-1.114044,410183.150183,119895164.835165,34660073.260073,73.781967,1,2,2,1,2,50.000000
2568-11-14 12:08:28.967,,,,,,,,,,,,,,,,,,,,,,,,,,,,,,,,,,,,,,,,,,/muse/elements/blink
2568-11-14 12:08:28.967,,,,,,,,,,,,,,,,,,,,,,,,,,,,,,,,,,,,,,,,,,/muse/elements/jaw_clench
2568-11-14 12:08:29.337,0,0,0.3416923182967747,0.04358262001919562,0,0,0.3159626282327065,1.512261135098641,0,0,0.3729347339835247,0.9622595323314479,0,0,0.6271491646452408,1.149404083093786,0,0,0.3254473376539473,1.129855642185434,0,0,753.8827838827839,0,1203.956043956044,-0.189575,0.128113,0.975830,0.381317,-1.218719,0.254211,410183.150183,120094212.454212,34701172.161172,73.413879,1,2,2,1,2,50.000000
2568-11-14 12:08:29.347,,,,,,,,,,,,,,,,,,,,,,,,,,,,,,,,,,,,,,,,,,/muse/elements/jaw_clench
2568-11-14 12:08:29.660,,,,,,,,,,,,,,,,,,,,,,,,,,,,,,,,,,,,,,,,,,/muse/elements/jaw_clench
2568-11-14 12:08:29.857,,,,,,,,,,,,,,,,,,,,,,,,,,,,,,,,,,,,,,,,,,/muse/elements/jaw_clench
2568-11-14 12:08:30.270,,,,,,,,,,,,,,,,,,,,,,,,,,,,,,,,,,,,,,,,,,/muse/elements/blink
2568-11-14 12:08:30.336,0,0,0.7176108674231805,0.04358262001919562,0,0,0.2675911114445286,1.512261135098641,0,0,0.2786213230527345,0.9622595323314479,0,0,0.5539593257866905,1.149404083093786,0,0,0.4679792303608467,1.129855642185434,1650,1650,848.1684981684982,1650,1320.40293040293,-0.202698,0.126526,0.973389,0.209351,-1.024323,0.209351,411794.871795,120251355.311355,34768058.608059,72.493874,1,2,2,1,2,50.000000
2568-11-14 12:08:31.013,,,,,,,,,,,,,,,,,,,,,,,,,,,,,,,,,,,,,,,,,,/muse/elements/jaw_clench
2568-11-14 12:08:31.337,0,0,0.637666338304781,0.04358262001919562,0,0,0.07616419345676709,1.512261135098641,0,0,0.2648409334128886,0.9622595323314479,0,0,0.6168010310592033,1.149404083093786,0,0,0.3417571442542456,1.129855642185434,956.5567765567766,1191.465201465202,823.1868131868132,1029.89010989011,743.0036630036631,-0.195312,0.127625,0.973145,0.306549,-2.011261,0.186920,411794.871795,120153040.293040,34754358.974359,72.550529,1,2,2,1,2,50.000000
2568-11-14 12:08:31.582,,,,,,,,,,,,,,,,,,,,,,,,,,,,,,,,,,,,,,,,,,/muse/elements/blink
2568-11-14 12:08:31.582,,,,,,,,,,,,,,,,,,,,,,,,,,,,,,,,,,,,,,,,,,/muse/elements/jaw_clench
2568-11-14 12:08:32.001,,,,,,,,,,,,,,,,,,,,,,,,,,,,,,,,,,,,,,,,,,/muse/elements/jaw_clench
2568-11-14 12:08:32.198,,,,,,,,,,,,,,,,,,,,,,,,,,,,,,,,,,,,,,,,,,/muse/elements/jaw_clench
2568-11-14 12:08:32.337,0,0,0.2819894948474146,0.04358262001919562,0,0,-0.0274572120303095,1.512261135098641,0,0,0.6201971917638697,0.9622595323314479,0,0,0.6538336915615962,1.149404083093786,0,0,0.3153246481691617,1.129855642185434,1388.901098901099,1326.043956043956,837.2893772893773,1319.194139194139,749.8534798534798,-0.201233,0.125549,0.969971,0.127106,0.007477,0.224304,410183.150183,119670329.670330,34542417.582418,72.553322,1,2,2,1,2,50.000000
2568-11-14 12:08:32.802,,,,,,,,,,,,,,,,,,,,,,,,,,,,,,,,,,,,,,,,,,/muse/elements/blink
2568-11-14 12:08:33.087,,,,,,,,,,,,,,,,,,,,,,,,,,,,,,,,,,,,,,,,,,/muse/elements/jaw_clench
2568-11-14 12:08:33.336,0,0,0.2779402617516797,0.04358262001919562,0,0,0.2028899312006222,1.512261135098641,0,0,0.6565660219126315,0.9622595323314479,0,0,0.5941450439476689,1.149404083093786,0,0,0.3781481644685282,1.129855642185434,1636.300366300366,1650,821.5750915750916,1650,1498.498168498169,-0.210083,0.127869,0.971375,0.321503,-1.233673,0.351410,409377.289377,119750915.750916,34587545.787546,72.889229,1,2,2,1,2,50.000000
2568-11-14 12:08:33.609,,,,,,,,,,,,,,,,,,,,,,,,,,,,,,,,,,,,,,,,,,/muse/elements/jaw_clench
2568-11-14 12:08:34.043,,,,,,,,,,,,,,,,,,,,,,,,,,,,,,,,,,,,,,,,,,/muse/elements/blink
2568-11-14 12:08:34.221,,,,,,,,,,,,,,,,,,,,,,,,,,,,,,,,,,,,,,,,,,/muse/elements/jaw_clench
2568-11-14 12:08:34.345,0,0,0.4268631884707967,0.04358262001919562,0,0,-0.003660232808005482,1.512261135098641,0,0,0.4515753501693003,0.9622595323314479,0,0,0.5099043484998541,1.149404083093786,0,0,0.335482468736936,1.129855642185434,353.7728937728938,687.3992673992674,765.1648351648352,570.952380952381,666.8498168498169,-0.204285,0.121704,0.969055,0.403748,-0.994415,0.074768,410989.010989,119871794.871795,34651208.791209,74.289993,1,2,2,1,2,50.000000
2568-11-14 12:08:34.839,,,,,,,,,,,,,,,,,,,,,,,,,,,,,,,,,,,,,,,,,,/muse/elements/jaw_clench
2568-11-14 12:08:35.145,,,,,,,,,,,,,,,,,,,,,,,,,,,,,,,,,,,,,,,,,,/muse/elements/jaw_clench
2568-11-14 12:08:35.337,0,0,0.5116846788345147,0.04358262001919562,0,0,0.1923463408856279,1.512261135098641,0,0,0.5437372893696422,0.9622595323314479,0,0,0.6405649977291143,1.149404083093786,0,0,0.3149330134219168,1.129855642185434,0,0,759.1208791208792,0,565.7142857142858,-0.199036,0.126343,0.974609,-0.515900,-1.667328,0.336456,408571.428571,119895164.835165,34646373.626374,74.817139,1,2,2,1,2,50.000000
2568-11-14 12:08:35.474,,,,,,,,,,,,,,,,,,,,,,,,,,,,,,,,,,,,,,,,,,/muse/elements/blink
2568-11-14 12:08:35.940,,,,,,,,,,,,,,,,,,,,,,,,,,,,,,,,,,,,,,,,,,/muse/elements/jaw_clench
2568-11-14 12:08:36.337,0,0,0.7980312563676732,0.04358262001919562,0,0,0.3660394388183658,1.512261135098641,0,0,0.5178818043759784,0.9622595323314479,0,0,0.7002002612526975,1.149404083093786,0,0,0.1720391901378385,1.129855642185434,1026.263736263736,536.7032967032967,812.3076923076924,375.1282051282051,736.1538461538462,-0.203491,0.122498,0.970520,-0.201874,-1.181335,-0.216827,410183.150183,119406813.186813,34409450.549451,75.240257,1,2,2,1,2,50.000000
2568-11-14 12:08:36.649,,,,,,,,,,,,,,,,,,,,,,,,,,,,,,,,,,,,,,,,,,/muse/elements/blink
2568-11-14 12:08:37.267,,,,,,,,,,,,,,,,,,,,,,,,,,,,,,,,,,,,,,,,,,/muse/elements/jaw_clench
2568-11-14 12:08:37.347,0,0,0.774423123948409,0.04358262001919562,0,0,0.397624286429362,1.512261135098641,0,0,0.4310168858757525,0.9622595323314479,0,0,0.6617434585673903,1.149404083093786,0,0,0.3241846602721045,1.129855642185434,364.6520146520147,524.6153846153846,774.4322344322345,643.8827838827839,656.3736263736264,-0.208313,0.127502,0.973328,0.216827,-1.286011,0.762634,410183.150183,119692893.772894,34606080.586081,75.300987,1,2,2,1,2,50.000000
2568-11-14 12:08:37.972,,,,,,,,,,,,,,,,,,,,,,,,,,,,,,,,,,,,,,,,,,/muse/elements/blink
2568-11-14 12:08:38.337,0,0,0.4174302023520735,0.04358262001919562,0,0,0.1531761921963523,1.512261135098641,0,0,0.3876888658011324,0.9622595323314479,0,0,0.5942620651356674,1.149404083093786,0,0,0.3419972525160447,1.129855642185434,627.3626373626374,417.4358974358975,777.6556776556777,64.87179487179488,788.1318681318681,-0.209839,0.119385,0.971130,-0.471039,-1.831818,-0.613098,409377.289377,119986227.106227,34690695.970696,75.241867,1,2,2,1,2,50.000000
2568-11-14 12:08:39.097,,,,,,,,,,,,,,,,,,,,,,,,,,,,,,,,,,,,,,,,,,/muse/elements/blink
2568-11-14 12:08:39.353,0,0,0.3801257045843208,0.04358262001919562,0,0,0.2119976205517701,1.512261135098641,0,0,0.5302492777405647,0.9622595323314479,0,0,0.5088851950944885,1.149404083093786,0,0,0.5325665802262328,1.129855642185434,963.8095238095239,1003.296703296703,801.8315018315019,1159.230769230769,1139.89010989011,-0.210815,0.125061,0.970703,0.291595,-2.048645,0.994415,410989.010989,120014432.234432,34726959.706960,74.986221,1,2,2,1,2,50.000000
2568-11-14 12:08:39.710,,,,,,,,,,,,,,,,,,,,,,,,,,,,,,,,,,,,,,,,,,/muse/elements/jaw_clench
2568-11-14 12:08:40.340,0,0,0.4879314492649864,0.04358262001919562,0,0,0.162117814232222,1.512261135098641,0,0,0.489892663094299,0.9622595323314479,0,0,0.6549527346371044,1.149404083093786,0,0,0.4875610096368397,1.129855642185434,0,0,748.6446886446887,0,660.4029304029305,-0.215393,0.127258,0.962524,-0.216827,-1.278534,-0.074768,410183.150183,119677582.417582,34540805.860806,74.840500,1,2,2,1,2,50.000000
2568-11-14 12:08:40.391,,,,,,,,,,,,,,,,,,,,,,,,,,,,,,,,,,,,,,,,,,/muse/elements/blink
2568-11-14 12:08:40.545,,,,,,,,,,,,,,,,,,,,,,,,,,,,,,,,,,,,,,,,,,/muse/elements/jaw_clench
2568-11-14 12:08:41.338,0,0,0.3556425039097774,0.04358262001919562,0,0,0.04164899151372752,1.512261135098641,0,0,0.3342619022023969,0.9622595323314479,0,0,0.5438765266572414,1.149404083093786,0,0,0.3935458093920026,1.129855642185434,1650,1650,845.7509157509157,1650,1020.21978021978,-0.207397,0.121765,0.968994,0.022430,-1.360779,0.149536,410989.010989,119802490.842491,34637509.157509,74.589676,1,2,2,1,2,50.000000
2568-11-14 12:08:41.624,,,,,,,,,,,,,,,,,,,,,,,,,,,,,,,,,,,,,,,,,,/muse/elements/blink
2568-11-14 12:08:42.340,0,0,0.07746372442051003,0.04358262001919562,0,0,0.3505376148099276,1.512261135098641,0,0,0.369193022978839,0.9622595323314479,0,0,0.7003791734231463,1.149404083093786,0,0,0.2642035998614295,1.129855642185434,358.6080586080586,518.5714285714286,774.4322344322345,699.4871794871796,891.2820512820513,-0.215576,0.115845,0.974243,0.157013,-1.465454,0.097198,410989.010989,119965274.725275,34706007.326007,74.479698,1,2,2,1,2,50.000000
2568-11-14 12:08:42.748,,,,,,,,,,,,,,,,,,,,,,,,,,,,,,,,,,,,,,,,,,/muse/elements/jaw_clench
2568-11-14 12:08:42.837,,,,,,,,,,,,,,,,,,,,,,,,,,,,,,,,,,,,,,,,,,/muse/elements/blink
2568-11-14 12:08:42.969,,,,,,,,,,,,,,,,,,,,,,,,,,,,,,,,,,,,,,,,,,/muse/elements/jaw_clench
2568-11-14 12:08:43.337,0,0,0.4190096873059577,0.04358262001919562,0,0,0.3338059426900935,1.512261135098641,0,0,0.4093243326583765,0.9622595323314479,0,0,0.6080749871206143,1.149404083093786,0,0,0.3267576403043789,1.129855642185434,0,0,763.5531135531136,0,350.5494505494506,-0.211792,0.125916,0.964172,0.897217,-1.674805,1.001892,410989.010989,120044249.084249,34720512.820513,75.155464,1,2,2,1,2,50.000000
2568-11-14 12:08:44.047,,,,,,,,,,,,,,,,,,,,,,,,,,,,,,,,,,,,,,,,,,/muse/elements/blink
2568-11-14 12:08:44.199,,,,,,,,,,,,,,,,,,,,,,,,,,,,,,,,,,,,,,,,,,/muse/elements/jaw_clench
2568-11-14 12:08:44.344,0,0,0.6653499720072735,0.04358262001919562,0,0,0.2777058832942156,1.512261135098641,0,0,0.494164540378849,0.9622595323314479,0,0,0.6761826881561857,1.149404083093786,0,0,0.3486647126585909,1.129855642185434,1154.798534798535,1494.468864468864,823.1868131868132,1400.989010989011,817.948717948718,-0.210388,0.125549,0.977478,0.343933,-1.600037,-0.471039,410183.150183,119647765.567766,34564175.824176,75.349022,1,2,2,1,2,50.000000
2568-11-14 12:08:45.347,0,0,0.7944804713492017,0.04358262001919562,0,0,0.02350276093860163,1.512261135098641,0,0,0.497495447540421,0.9622595323314479,0,0,0.7433425185653032,1.149404083093786,0,0,0.2922178478485336,1.129855642185434,0,0,745.4212454212454,66.48351648351648,688.6080586080586,-0.222595,0.122925,0.970215,0.456085,-1.413116,0.605621,408571.428571,119810549.450549,34639120.879121,74.606544,1,2,2,1,2,50.000000
2568-11-14 12:08:45.422,,,,,,,,,,,,,,,,,,,,,,,,,,,,,,,,,,,,,,,,,,/muse/elements/blink
2568-11-14 12:08:46.017,,,,,,,,,,,,,,,,,,,,,,,,,,,,,,,,,,,,,,,,,,/muse/elements/jaw_clench
2568-11-14 12:08:46.339,0,0,0.6541717250065393,0.04358262001919562,0,0,0.2505264183159556,1.512261135098641,0,0,0.5305544008873333,0.9622595323314479,0,0,0.5776190522313436,1.149404083093786,0,0,0.1810209607206134,1.129855642185434,546.3736263736264,243.7728937728938,770.4029304029305,172.8571428571429,497.2161172161173,-0.226562,0.120239,0.965027,0.127106,-1.345825,-0.224304,410989.010989,120020879.120879,34713260.073260,74.703156,1,2,2,1,2,50.000000
2568-11-14 12:08:46.632,,,,,,,,,,,,,,,,,,,,,,,,,,,,,,,,,,,,,,,,,,/muse/elements/blink
2568-11-14 12:08:47.243,,,,,,,,,,,,,,,,,,,,,,,,,,,,,,,,,,,,,,,,,,/muse/elements/jaw_clench
2568-11-14 12:08:47.351,0,0,0.3702381784707962,0.04358262001919562,0,0,0.2689628342941887,1.512261135098641,0,0,0.5382133702443885,0.9622595323314479,0,0,0.5948317183861076,1.149404083093786,0,0,0.3030865646162952,1.129855642185434,775.2380952380953,940.4395604395605,790.5494505494506,910.6227106227107,718.4249084249085,-0.213806,0.107605,0.968750,0.224304,-1.517792,-0.164490,410989.010989,120107912.087912,34771282.051282,74.657791,1,2,2,1,2,50.000000
2568-11-14 12:08:47.529,,,,,,,,,,,,,,,,,,,,,,,,,,,,,,,,,,,,,,,,,,/muse/elements/jaw_clench
2568-11-14 12:08:47.859,,,,,,,,,,,,,,,,,,,,,,,,,,,,,,,,,,,,,,,,,,/muse/elements/blink
2568-11-14 12:08:47.859,,,,,,,,,,,,,,,,,,,,,,,,,,,,,,,,,,,,,,,,,,/muse/elements/jaw_clench
2568-11-14 12:08:48.337,0,0,0.2740149756741818,0.04358262001919562,0,0,0.4198682773201411,1.512261135098641,0,0,0.5733251103090987,0.9622595323314479,0,0,0.6962987969720625,1.149404083093786,0,0,0.3659619792130043,1.129855642185434,0,0,724.8717948717949,0,752.6739926739926,-0.215454,0.120056,0.964478,0.044861,-1.158905,-0.149536,410989.010989,119675970.695971,34562564.102564,74.454453,1,2,2,1,2,50.000000
2568-11-14 12:08:48.470,,,,,,,,,,,,,,,,,,,,,,,,,,,,,,,,,,,,,,,,,,/muse/elements/jaw_clench
2568-11-14 12:08:49.086,,,,,,,,,,,,,,,,,,,,,,,,,,,,,,,,,,,,,,,,,,/muse/elements/blink
2568-11-14 12:08:49.342,0,0,0.7084670887184419,0.04358262001919562,0,0,0.5120790577398572,1.512261135098641,0,0,0.6653558661289841,0.9622595323314479,0,0,0.6959769071941569,1.149404083093786,0,0,0.2204989587992498,1.129855642185434,946.0805860805862,801.4285714285714,804.6520146520147,727.2893772893773,509.3040293040293,-0.228699,0.113037,0.967957,0.186920,-1.263580,-0.882263,410989.010989,119796849.816850,34628644.688645,74.524620,1,2,2,1,2,50.000000
2568-11-14 12:08:49.441,,,,,,,,,,,,,,,,,,,,,,,,,,,,,,,,,,,,,,,,,,/muse/elements/jaw_clench
2568-11-14 12:08:50.300,,,,,,,,,,,,,,,,,,,,,,,,,,,,,,,,,,,,,,,,,,/muse/elements/blink
2568-11-14 12:08:50.337,0,0,0.6609280039185016,0.04358262001919562,0,0,0.5515681682486486,1.512261135098641,0,0,0.6194389224306488,0.9622595323314479,0,0,0.6216368202171646,1.149404083093786,0,0,0.3702736981555285,1.129855642185434,1650,1650,840.9157509157509,1650,822.7838827838829,-0.224182,0.110779,0.966248,0.194397,-0.919647,-0.029907,410183.150183,119828278.388278,34658461.538462,74.835464,1,2,2,1,2,50.000000
2568-11-14 12:08:50.765,,,,,,,,,,,,,,,,,,,,,,,,,,,,,,,,,,,,,,,,,,/muse/elements/jaw_clench
2568-11-14 12:08:51.198,,,,,,,,,,,,,,,,,,,,,,,,,,,,,,,,,,,,,,,,,,/muse/elements/jaw_clench
2568-11-14 12:08:51.337,0,0,0.4050977702153526,0.04358262001919562,0,0,0.4670407396364461,1.512261135098641,0,0,0.4712440019087181,0.9622595323314479,0,0,0.455200737375559,1.149404083093786,0,0,0.3387069586493872,1.129855642185434,377.948717948718,124.1025641025641,768.7912087912088,42.30769230769231,784.9084249084249,-0.231628,0.113464,0.973938,0.882263,-0.000000,1.667328,409377.289377,119872600.732601,34659267.399267,75.162003,1,2,2,1,2,50.000000
2568-11-14 12:08:51.597,,,,,,,,,,,,,,,,,,,,,,,,,,,,,,,,,,,,,,,,,,/muse/elements/blink
2568-11-14 12:08:52.336,0,0,0.5170222801942655,0.04358262001919562,0,0,0.3731639496947571,1.512261135098641,0,0,0.4039394948378626,0.9622595323314479,0,0,0.6467871634680381,1.149404083093786,0,0,0.323015663815506,1.129855642185434,1650,1595.604395604396,841.3186813186813,1441.684981684982,854.6153846153846,-0.220947,0.108887,0.966614,0.134583,-0.829926,-0.530853,410989.010989,119463223.443223,34490036.630037,75.721252,1,2,2,1,2,50.000000
2568-11-14 12:08:52.824,,,,,,,,,,,,,,,,,,,,,,,,,,,,,,,,,,,,,,,,,,/muse/elements/blink
2568-11-14 12:08:53.095,,,,,,,,,,,,,,,,,,,,,,,,,,,,,,,,,,,,,,,,,,/muse/elements/jaw_clench
2568-11-14 12:08:53.345,0,0,0.5441203536792888,0.04358262001919562,0,0,0.2414513023604572,1.512261135098641,0,0,0.4643156472273334,0.9622595323314479,0,0,0.7214350472541541,1.149404083093786,0,0,0.4434484179648532,1.129855642185434,0,0,765.9706959706959,0,312.2710622710623,-0.227234,0.107727,0.964783,0.508423,-1.308441,0.478516,410183.150183,119616336.996337,34554505.494505,75.872871,1,2,2,1,2,50.000000
2568-11-14 12:08:53.707,,,,,,,,,,,,,,,,,,,,,,,,,,,,,,,,,,,,,,,,,,/muse/elements/jaw_clench
2568-11-14 12:08:54.036,,,,,,,,,,,,,,,,,,,,,,,,,,,,,,,,,,,,,,,,,,/muse/elements/blink
2568-11-14 12:08:54.324,,,,,,,,,,,,,,,,,,,,,,,,,,,,,,,,,,,,,,,,,,/muse/elements/jaw_clench
2568-11-14 12:08:54.337,0,0,0.2463527562494709,0.04358262001919562,0,0,0.08950534205471077,1.512261135098641,0,0,0.4904138596390861,0.9622595323314479,0,0,0.6645377498504652,1.149404083093786,0,0,0.3942474437239148,1.129855642185434,727.2893772893773,661.6117216117216,798.2051282051282,639.4505494505495,820.7692307692308,-0.224365,0.107727,0.966492,0.119629,-1.099091,0.418701,410989.010989,119878241.758242,34658461.538462,75.695366,1,2,2,1,2,50.000000
2568-11-14 12:08:55.265,,,,,,,,,,,,,,,,,,,,,,,,,,,,,,,,,,,,,,,,,,/muse/elements/blink
2568-11-14 12:08:55.337,0,0,0.1866100460568979,0.04358262001919562,0,0,0.1323478566902585,1.512261135098641,0,0,0.4839362690611778,0.9622595323314479,0,0,0.670193131866747,1.149404083093786,0,0,0.4957974756583949,1.129855642185434,1650,1650,850.5860805860806,1650,877.985347985348,-0.227844,0.103027,0.966553,-0.179443,-2.459869,-0.411224,411794.871795,119988644.688645,34725347.985348,75.548927,1,2,2,1,2,50.000000
2568-11-14 12:08:55.866,,,,,,,,,,,,,,,,,,,,,,,,,,,,,,,,,,,,,,,,,,/muse/elements/jaw_clench
2568-11-14 12:08:56.345,0,0,0.4403619125318924,0.04358262001919562,0,0,-0.04418341551503396,1.512261135098641,0,0,0.3939124248708371,0.9622595323314479,0,0,0.5373586302928522,1.149404083093786,0,0,0.5006005249778923,1.129855642185434,116.4468864468865,20.14652014652015,777.6556776556777,0,367.4725274725275,-0.221802,0.102234,0.970703,-0.037384,-0.358887,-0.201874,410989.010989,119628424.908425,34572234.432234,75.119720,1,2,2,1,2,50.000000
2568-11-14 12:08:56.485,,,,,,,,,,,,,,,,,,,,,,,,,,,,,,,,,,,,,,,,,,/muse/elements/blink
2568-11-14 12:08:56.856,,,,,,,,,,,,,,,,,,,,,,,,,,,,,,,,,,,,,,,,,,/muse/elements/jaw_clench
2568-11-14 12:08:57.097,,,,,,,,,,,,,,,,,,,,,,,,,,,,,,,,,,,,,,,,,,/muse/elements/jaw_clench
2568-11-14 12:08:57.337,0,0,0.4649724157617359,0.04358262001919562,0,0,0.4961486557718013,1.512261135098641,0,0,0.500525093771013,0.9622595323314479,0,0,0.612922915891019,1.149404083093786,0,0,0.5269677962135275,1.129855642185434,1610.512820512821,1262.380952380953,820.3663003663004,1282.124542124542,1075.824175824176,-0.234558,0.100586,0.969727,0.299072,-0.852356,0.441132,410183.150183,119711428.571429,34620586.080586,74.445007,1,2,2,1,2,50.000000
2568-11-14 12:08:57.801,,,,,,,,,,,,,,,,,,,,,,,,,,,,,,,,,,,,,,,,,,/muse/elements/blink
2568-11-14 12:08:58.075,,,,,,,,,,,,,,,,,,,,,,,,,,,,,,,,,,,,,,,,,,/muse/elements/jaw_clench
2568-11-14 12:08:58.337,0,0,0.2687640471649257,0.04358262001919562,0,0,0.3941201666660265,1.512261135098641,0,0,0.4563448098522619,0.9622595323314479,0,0,0.5741974920833103,1.149404083093786,0,0,0.4387144849887967,1.129855642185434,1400.989010989011,1612.930402930403,817.948717948718,1614.945054945055,858.6446886446887,-0.234497,0.099731,0.969604,0.037384,-2.115936,0.119629,409377.289377,119925787.545788,34675384.615385,74.313286,1,2,2,1,2,50.000000
2568-11-14 12:08:59.000,,,,,,,,,,,,,,,,,,,,,,,,,,,,,,,,,,,,,,,,,,/muse/elements/blink
2568-11-14 12:08:59.350,0,0,0.1281958493668178,0.04358262001919562,0,0,0.4358661884582629,1.512261135098641,0,0,0.4744563211111924,0.9622595323314479,0,0,0.5374711419002006,1.149404083093786,0,0,0.3834907326089972,1.129855642185434,648.3150183150183,605.2014652014652,794.1758241758242,369.4871794871795,560.4761904761905,-0.226562,0.097961,0.969238,0.620575,-1.816864,-0.201874,410183.150183,120019267.399267,34713260.073260,74.397667,1,2,2,1,2,50.000000
2568-11-14 12:08:59.439,,,,,,,,,,,,,,,,,,,,,,,,,,,,,,,,,,,,,,,,,,/muse/elements/jaw_clench
2568-11-14 12:08:59.616,,,,,,,,,,,,,,,,,,,,,,,,,,,,,,,,,,,,,,,,,,/muse/elements/jaw_clench
2568-11-14 12:09:00.233,,,,,,,,,,,,,,,,,,,,,,,,,,,,,,,,,,,,,,,,,,/muse/elements/blink
2568-11-14 12:09:00.337,0,0,0.3157230067883267,0.04358262001919562,0,0,0.4852456729808559,1.512261135098641,0,0,0.4828101037935058,0.9622595323314479,0,0,0.7258657468581945,1.149404083093786,0,0,0.4181247413184568,1.129855642185434,1650,1650,824.7985347985348,1650,1190.659340659341,-0.223083,0.100769,0.959778,0.179443,-1.443024,-0.164490,410989.010989,119503516.483516,34513406.593407,74.275444,1,2,2,1,2,50.000000
2568-11-14 12:09:01.132,,,,,,,,,,,,,,,,,,,,,,,,,,,,,,,,,,,,,,,,,,/muse/elements/jaw_clench
2568-11-14 12:09:01.337,0,0,0.5085688763237105,0.04358262001919562,0,0,0.3895978790932563,1.512261135098641,0,0,0.5605526687847756,0.9622595323314479,0,0,0.6851084968076998,1.149404083093786,0,0,0.5076376735070512,1.129855642185434,942.8571428571429,1031.904761904762,790.5494505494506,1180.18315018315,813.5164835164835,-0.225098,0.103455,0.970764,-0.007477,-1.846771,0.164490,411794.871795,119666300.366300,34584322.344322,74.637138,1,2,2,1,2,50.000000
2568-11-14 12:09:01.353,,,,,,,,,,,,,,,,,,,,,,,,,,,,,,,,,,,,,,,,,,/muse/elements/jaw_clench
2568-11-14 12:09:01.551,,,,,,,,,,,,,,,,,,,,,,,,,,,,,,,,,,,,,,,,,,/muse/elements/blink
2568-11-14 12:09:01.969,,,,,,,,,,,,,,,,,,,,,,,,,,,,,,,,,,,,,,,,,,/muse/elements/jaw_clench
2568-11-14 12:09:02.338,0,0,0.4729318451992558,0.04358262001919562,0,0,0.190469954691167,1.512261135098641,0,0,0.4732164357926657,0.9622595323314479,0,0,0.662432010815191,1.149404083093786,0,0,0.3521733329877947,1.129855642185434,0,0,753.4798534798535,0,660,-0.222717,0.098755,0.969666,0.328979,-1.084137,-0.216827,408571.428571,119801684.981685,34633479.853480,75.443840,1,2,2,1,2,50.000000
2568-11-14 12:09:02.346,,,,,,,,,,,,,,,,,,,,,,,,,,,,,,,,,,,,,,,,,,/muse/elements/jaw_clench
2568-11-14 12:09:02.760,,,,,,,,,,,,,,,,,,,,,,,,,,,,,,,,,,,,,,,,,,/muse/elements/blink
2568-11-14 12:09:03.341,0,0,0.4779569408123953,0.04358262001919562,0,0,0.344481469100591,1.512261135098641,0,0,0.1682529303525626,0.9622595323314479,0,0,0.5171408853886669,1.149404083093786,0,0,0.3776168116956869,1.129855642185434,1650,1650,833.2600732600733,1650,1175.750915750916,-0.222229,0.098328,0.966797,0.448608,-1.682281,1.158905,409377.289377,119720293.040293,34631062.271062,75.666122,1,2,2,1,2,50.000000
2568-11-14 12:09:03.788,,,,,,,,,,,,,,,,,,,,,,,,,,,,,,,,,,,,,,,,,,/muse/elements/jaw_clench
2568-11-14 12:09:03.984,,,,,,,,,,,,,,,,,,,,,,,,,,,,,,,,,,,,,,,,,,/muse/elements/blink
2568-11-14 12:09:04.337,0,0,0.6924363589094207,0.04358262001919562,0,0,0.5398604028787117,1.512261135098641,0,0,0.5462357176878767,0.9622595323314479,0,0,0.582163396851176,1.149404083093786,0,0,0.3659456367028775,1.129855642185434,116.8498168498168,581.8315018315019,784.5054945054945,668.4615384615385,602.7838827838827,-0.210205,0.101379,0.970520,0.246735,-1.173859,-0.358887,409377.289377,119386666.666667,34494065.934066,76.018867,1,2,2,1,2,50.000000
2568-11-14 12:09:05.203,,,,,,,,,,,,,,,,,,,,,,,,,,,,,,,,,,,,,,,,,,/muse/elements/blink
2568-11-14 12:09:05.349,0,0,0.7465544414452858,0.04358262001919562,0,0,0.5075821071321397,1.512261135098641,0,0,0.5175663548752549,0.9622595323314479,0,0,0.6745400387458566,1.149404083093786,0,0,0.3632939398483614,1.129855642185434,1650,1650,828.4249084249085,1505.347985347985,841.7216117216118,-0.222900,0.105652,0.969238,0.239258,-1.099091,0.545807,410183.150183,119549450.549451,34550476.190476,75.820763,1,2,2,1,2,50.000000
2568-11-14 12:09:05.797,,,,,,,,,,,,,,,,,,,,,,,,,,,,,,,,,,,,,,,,,,/muse/elements/jaw_clench
2568-11-14 12:09:05.993,,,,,,,,,,,,,,,,,,,,,,,,,,,,,,,,,,,,,,,,,,/muse/elements/jaw_clench
2568-11-14 12:09:06.322,,,,,,,,,,,,,,,,,,,,,,,,,,,,,,,,,,,,,,,,,,/muse/elements/jaw_clench
2568-11-14 12:09:06.338,0,0,0.4287713846535166,0.4816015023236595,0,0,0.1782558114197925,2.63413775262702,0,0,0.4572167060868293,0.9877672643159084,0,0,0.5823966220418948,0.9797953283608769,0,0,0.3722791434209737,1.233327013726154,948.4981684981685,1100.40293040293,799.4139194139194,1461.831501831502,1198.717948717949,-0.216858,0.103333,0.966492,0.089722,-1.869202,0.231781,411794.871795,119784761.904762,34639926.739927,75.591599,1,2,2,1,2,50.000000
2568-11-14 12:09:06.519,,,,,,,,,,,,,,,,,,,,,,,,,,,,,,,,,,,,,,,,,,/muse/elements/blink
2568-11-14 12:09:07.240,,,,,,,,,,,,,,,,,,,,,,,,,,,,,,,,,,,,,,,,,,/muse/elements/jaw_clench
2568-11-14 12:09:07.343,0,0,0.5237147629855554,0.4816015023236595,0,0,0.2593086098177939,2.63413775262702,0,0,0.6942975335161756,0.9877672643159084,0,0,0.5686461013983365,0.9797953283608769,0,0,0.2295254715717561,1.233327013726154,0,0,754.2857142857143,0,388.8278388278388,-0.217346,0.100220,0.965210,-0.067291,-2.190704,-0.628052,411794.871795,119814578.754579,34663296.703297,75.633629,1,2,2,1,2,50.000000
2568-11-14 12:09:07.637,,,,,,,,,,,,,,,,,,,,,,,,,,,,,,,,,,,,,,,,,,/muse/elements/jaw_clench
2568-11-14 12:09:07.725,,,,,,,,,,,,,,,,,,,,,,,,,,,,,,,,,,,,,,,,,,/muse/elements/blink
2568-11-14 12:09:08.338,0,0,0.6132329018052067,0.4816015023236595,0,0,0.092305016600934,2.63413775262702,0,0,0.6817243800509044,0.9877672643159084,0,0,0.6462672857697223,0.9797953283608769,0,0,0.1096676612170006,1.233327013726154,638.6446886446887,437.985347985348,786.1172161172161,263.1135531135531,639.047619047619,-0.198608,0.096252,0.974792,0.052338,-1.876678,-0.657959,410989.010989,119410036.630037,34512600.732601,75.186256,1,2,2,1,2,50.000000
2568-11-14 12:09:08.931,,,,,,,,,,,,,,,,,,,,,,,,,,,,,,,,,,,,,,,,,,/muse/elements/blink
2568-11-14 12:09:09.040,,,,,,,,,,,,,,,,,,,,,,,,,,,,,,,,,,,,,,,,,,/muse/elements/jaw_clench
2568-11-14 12:09:09.338,0,0,0.7596164570761609,0.4816015023236595,0,0,0.2384787795529388,2.63413775262702,0,0,0.607779105079612,0.9877672643159084,0,0,0.5984686733177652,0.9797953283608769,0,0,0.2012392160959504,1.233327013726154,797.3992673992674,875.5677655677656,773.6263736263736,912.6373626373627,977.1062271062272,-0.201843,0.098999,0.970947,0.336456,-1.487885,0.919647,410989.010989,119555091.575092,34560952.380952,74.650429,1,2,2,1,2,50.000000
2568-11-14 12:09:09.980,,,,,,,,,,,,,,,,,,,,,,,,,,,,,,,,,,,,,,,,,,/muse/elements/jaw_clench
2568-11-14 12:09:10.266,,,,,,,,,,,,,,,,,,,,,,,,,,,,,,,,,,,,,,,,,,/muse/elements/blink
2568-11-14 12:09:10.337,0,0,0.08159472694979084,0.1859284053825002,0,0,0.2692705942678728,2.336401660868578,0,0,0.5848520367022332,1.07885314218701,0,0,0.6222395699940707,0.9505934072660381,0,0,0.2627041962951002,1.22807606649302,0,0,767.985347985348,0,363.0402930402931,-0.190857,0.134521,0.971130,3.850555,0.575714,12.104950,410989.010989,119728351.648352,34635897.435897,74.760452,1,2,2,1,2,50.000000
2568-11-14 12:09:10.593,,,,,,,,,,,,,,,,,,,,,,,,,,,,,,,,,,,,,,,,,,/muse/elements/jaw_clench
2568-11-14 12:09:11.338,0,0,0.522805617110603,-0.0242837944868423,0,0,0.484933380857098,2.32159679891461,0,0,0.8173621872723829,1.065112619495169,0,0,0.6554974370177202,0.960593522297967,0,0,0.4204162280334744,1.205174458071848,1650,1650,819.5604395604396,1650,958.5714285714286,-0.194214,0.163879,0.969055,-0.082245,-4.680481,-0.912170,411794.871795,119461611.721612,34515018.315018,74.842743,1,2,2,1,2,50.000000
2568-11-14 12:09:11.470,,,,,,,,,,,,,,,,,,,,,,,,,,,,,,,,,,,,,,,,,,/muse/elements/blink
