TimeStamp,Delta_TP9,Delta_AF7,Delta_AF8,Delta_TP10,Theta_TP9,Theta_AF7,Theta_AF8,Theta_TP10,Alpha_TP9,Alpha_AF7,Alpha_AF8,Alpha_TP10,Beta_TP9,Beta_AF7,Beta_AF8,Beta_TP10,Gamma_TP9,Gamma_AF7,Gamma_AF8,Gamma_TP10,RAW_TP9,RAW_AF7,RAW_AF8,RAW_TP10,AUX_RIGHT,Accelerometer_X,Accelerometer_Y,Accelerometer_Z,Gyro_X,Gyro_Y,Gyro_Z,PPG_Ambient,PPG_IR,PPG_Red,Heart_Rate,HeadBandOn,HSI_TP9,HSI_AF7,HSI_AF8,HSI_TP10,Battery,Elements
2568-11-17 11:06:56.439,,,,,,,,,,,,,,,,,,,,,,,,,,,,,,,,,,,,,,,,,,/muse/event/connected Muse-2260
2568-11-17 11:06:56.645,,,,,,,,,,,,,,,,,,,,,,,,,,,,,,,,,,,,,,,,,,/muse/elements/blink
2568-11-17 11:06:56.711,,,,,,,,,,,,,,,,,,,,,,,,,,,,,,,,,,,,,,,,,,/muse/elements/blink
2568-11-17 11:06:56.737,,,,,,,,,,,,,,,,,,,,,,,,,,,,,,,,,,,,,,,,,,/muse/elements/blink
2568-11-17 11:06:56.995,,,,,,,,,,,,,,,,,,,,,,,,,,,,,,,,,,,,,,,,,,/muse/elements/blink
2568-11-17 11:06:57.443,0,0.7211302736251587,0.8048701615634392,0.8862952627436977,0,0.5567741374291442,0.9009650618696227,1.004174978644249,0,0.6151497039375494,0.9312021263510606,0.6097783819976882,0,0.6326427443532588,0.6781729450551445,1.135885291413881,0,0.5777814259360027,0.3367867661164696,0.8795846281690579,426.7032967032967,834.4688644688645,782.4908424908425,748.6446886446887,916.2637362637363,-0.218628,0.056763,0.977600,0.336456,-1.764526,0.246735,440000.000000,132253846.153846,48449963.369963,112.592743,1,2,1,1,1,20.000000
2568-11-17 11:06:57.712,,,,,,,,,,,,,,,,,,,,,,,,,,,,,,,,,,,,,,,,,,/muse/elements/blink
2568-11-17 11:06:58.442,0,0.3222258531367942,0.8771757022942851,0.8862952627436977,0,0.04657109136604615,0.5222776975051556,1.004174978644249,0,0.3353152345110432,0.9162233781989959,0.6097783819976882,0,0.4253741698603697,0.6430192798846777,1.135885291413881,0,0.240659739943547,0.2134225746473415,0.8795846281690579,1309.52380952381,841.7216117216118,789.3406593406594,821.1721611721612,698.6813186813187,-0.234192,0.047241,0.973022,-1.031799,-0.560760,2.714081,439194.139194,131979853.479853,48332307.692308,112.592743,1,2,1,1,1,20.000000
2568-11-17 11:06:59.113,,,,,,,,,,,,,,,,,,,,,,,,,,,,,,,,,,,,,,,,,,/muse/elements/blink
2568-11-17 11:06:59.439,0,0.3368084176905153,0.8349400080296897,0.8862952627436977,0,0.03226931996456122,0.1657640287103043,1.004174978644249,0,0.3096410993639903,0.4612293821513629,0.6097783819976882,0,0.4224597779890016,0.655350380450447,1.135885291413881,0,0.225791579830628,0.1313003655272369,0.8795846281690579,1191.465201465202,815.934065934066,799.0109890109891,811.9047619047619,718.021978021978,-0.237976,0.055542,0.974365,0.224304,-1.413116,0.500946,441611.721612,132064468.864469,48348424.908425,112.592743,1,2,1,1,1,20.000000
2568-11-17 11:07:00.338,,,,,,,,,,,,,,,,,,,,,,,,,,,,,,,,,,,,,,,,,,/muse/elements/blink
2568-11-17 11:07:00.439,0,0.3368084176905153,0.8349400080296897,0.8862952627436977,0,0.03226931996456122,0.1657640287103043,1.004174978644249,0,0.3096410993639903,0.4612293821513629,0.6097783819976882,0,0.4224597779890016,0.655350380450447,1.135885291413881,0,0.225791579830628,0.1313003655272369,0.8795846281690579,261.0989010989011,830.8424908424909,778.0586080586081,733.7362637362637,537.9120879120879,-0.232788,0.056763,0.972717,0.082245,-1.891632,0.029907,441611.721612,132144249.084249,48444322.344322,112.592743,1,2,1,1,2,20.000000
2568-11-17 11:07:01.440,0,0.889550642545701,1.186398572630695,0.8862952627436977,0,0.07797617326927464,1.026357854772247,1.004174978644249,0,0.5120798872451542,0.5394420132377097,0.6097783819976882,0,0.4470584226071318,0.5838831479725671,1.135885291413881,0,0.3063858852964569,0.2899741814672315,0.8795846281690579,1434.835164835165,825.6043956043957,786.1172161172161,853.4065934065934,849.7802197802198,-0.227844,0.064087,0.971924,0.358887,-1.360779,-0.029907,442417.582418,131929084.249084,48412087.912088,112.592743,1,2,1,1,2,20.000000
2568-11-17 11:07:01.658,,,,,,,,,,,,,,,,,,,,,,,,,,,,,,,,,,,,,,,,,,/muse/elements/blink
2568-11-17 11:07:02.440,0,0.2135719108691972,1.287411176136315,0.734057243098753,0,-0.01354469113502591,0.804023078951779,0.5002287668415737,0,0.498200650145501,1.004150006229006,1.366236176462847,0,0.433999821060738,0.4067110016794415,0.8613427325957856,0,0.2598385398600364,0.1488049204657226,0.6138259009130206,956.5567765567766,832.0512820512821,796.5934065934066,819.5604395604396,580.2197802197802,-0.229675,0.070129,0.973877,-0.067291,-1.009369,0.515900,443223.443223,131845274.725275,48375018.315018,112.592743,1,1,1,1,1,20.000000
2568-11-17 11:07:02.776,,,,,,,,,,,,,,,,,,,,,,,,,,,,,,,,,,,,,,,,,,/muse/elements/blink
2568-11-17 11:07:03.281,,,,,,,,,,,,,,,,,,,,,,,,,,,,,,,,,,,,,,,,,,/muse/elements/blink
2568-11-17 11:07:03.447,0,0.4327386853930494,1.208204445821682,0.9508343086327484,0,0.2340079568763357,0.662750349626403,0.7448818633922819,0,0.5496514572523717,1.015931837113462,1.411487439750471,0,0.2183733874271477,0.3505695542468168,0.7741868607144178,0,0.09982381103518623,0.1567751873221423,0.6735655526050957,944.0659340659341,836.8864468864469,792.967032967033,836.8864468864469,981.5384615384615,-0.222595,0.070190,0.971008,-0.388794,-2.063599,0.127106,442417.582418,131954871.794872,48390329.670330,112.592743,1,1,1,1,1,20.000000
2568-11-17 11:07:03.986,,,,,,,,,,,,,,,,,,,,,,,,,,,,,,,,,,,,,,,,,,/muse/elements/blink
2568-11-17 11:07:04.440,0,0.4803338995739976,1.001847806843513,0.9252977736814458,0,0.2652921956385172,0.5954777357085427,0.6864583744465778,0,0.5661056724389162,0.6359628707112472,1.401796022815331,0,0.2597721052442133,0.508673737271629,0.8282732204439963,0,0.194327093654376,0.04083563930281065,0.8053575831466536,1413.479853479854,846.5567765567765,791.7582417582418,883.2234432234433,903.7728937728938,-0.221497,0.067993,0.976868,-0.179443,-1.764526,-0.164490,442417.582418,131633333.333333,48307326.007326,112.592743,1,1,1,1,1,20.000000
2568-11-17 11:07:05.397,,,,,,,,,,,,,,,,,,,,,,,,,,,,,,,,,,,,,,,,,,/muse/elements/blink
2568-11-17 11:07:05.440,0,0.629301845625215,0.8287829611281196,0.3815368109104925,0,0.3319169158322776,0.5162135730761895,0.307673774746568,0,0.3842984172011664,0.3766884353679666,0.4749658275416768,0,0.4531045543516585,0.7351004044180588,1.172833364896174,0,0.3413879383044957,0.2456526156964795,0.9954459753555408,791.7582417582418,837.6923076923077,791.7582417582418,811.9047619047619,739.7802197802198,-0.219788,0.065552,0.971375,0.201874,-1.622467,0.164490,441611.721612,131605934.065934,48242857.142857,112.592743,1,2,1,1,2,20.000000
2568-11-17 11:07:06.453,0,0.1411557682694434,0.495600454430971,0.5192407423890312,0,0.3443992661875247,0.1145783779064961,0.483574638128366,0,0.3410166005934999,0.1930659144025836,0.893680725315629,0,0.5015607513083287,0.5640712998265094,1.167123845371124,0,0.3224566416636222,0.3124769473255087,0.8904668975268215,1076.630036630037,849.3772893772895,801.8315018315019,819.96336996337,860.2564102564103,-0.229126,0.069702,0.971252,0.164490,-1.300964,-0.067291,441611.721612,131708278.388278,48279120.879121,112.592743,1,1,1,1,1,20.000000
2568-11-17 11:07:06.763,,,,,,,,,,,,,,,,,,,,,,,,,,,,,,,,,,,,,,,,,,/muse/elements/blink
2568-11-17 11:07:06.940,,,,,,,,,,,,,,,,,,,,,,,,,,,,,,,,,,,,,,,,,,/muse/elements/blink
2568-11-17 11:07:07.138,,,,,,,,,,,,,,,,,,,,,,,,,,,,,,,,,,,,,,,,,,/muse/elements/blink
2568-11-17 11:07:07.439,0,0.1223183910384335,0.4641864985252916,0.9051605810119158,0,0.2651374924805616,0.1044332016972883,0.7252020075924118,0,0.3348114431317724,0.2183054661896103,0.8678048882443244,0,0.4257847184477286,0.4953569452230254,1.041251597758234,0,0.2996462116725869,0.2833090632033555,0.9016743584083955,1403.809523809524,828.4249084249085,807.8754578754579,873.5531135531136,713.992673992674,-0.216858,0.068787,0.974609,0.284119,-1.899109,-0.523376,443223.443223,131607545.787546,48302490.842491,112.592743,1,1,1,1,1,20.000000
2568-11-17 11:07:07.976,,,,,,,,,,,,,,,,,,,,,,,,,,,,,,,,,,,,,,,,,,/muse/elements/blink
2568-11-17 11:07:08.439,0,0.07996167258939062,0.3837364165144357,0.9051605810119158,0,0.1683861451434388,0.3889033172872182,0.7252020075924118,0,0.2209575186160398,0.4858406466613606,0.8678048882443244,0,0.4078090075232968,0.7225485434077065,1.041251597758234,0,0.3269486040911823,0.4546391018694064,0.9016743584083955,687.3992673992674,846.1538461538462,793.7728937728938,775.2380952380953,640.2564102564103,-0.215454,0.073730,0.974487,0.142059,-1.734619,0.022430,443223.443223,131485860.805861,48224322.344322,112.592743,1,1,1,1,1,20.000000
2568-11-17 11:07:09.205,,,,,,,,,,,,,,,,,,,,,,,,,,,,,,,,,,,,,,,,,,/muse/elements/blink
2568-11-17 11:07:09.379,,,,,,,,,,,,,,,,,,,,,,,,,,,,,,,,,,,,,,,,,,/muse/elements/blink
2568-11-17 11:07:09.440,0,0.7529163157516522,0.8305015878940448,0.9051605810119158,0,0.4786772297169576,0.355765638951832,0.7252020075924118,0,0.347055039001703,0.5536373577418581,0.8678048882443244,0,0.6690555857415359,0.6553363635302558,1.041251597758234,0,0.4251771991640684,0.4740007269384812,0.9016743584083955,219.5970695970696,825.2014652014652,776.4468864468864,721.6483516483516,580.2197802197802,-0.220032,0.075684,0.975037,0.134583,-1.801910,0.171967,442417.582418,131480219.780220,48246080.586081,112.592743,1,2,1,1,2,20.000000
2568-11-17 11:07:09.660,,,,,,,,,,,,,,,,,,,,,,,,,,,,,,,,,,,,,,,,,,/muse/elements/blink
2568-11-17 11:07:10.443,0,1.026748780319387,1.121139154684036,0.9051605810119158,0,0.6101161438029687,0.3644550878523239,0.7252020075924118,0,0.4885760793217507,0.4987212556732014,0.8678048882443244,0,0.6990157271666286,0.4677568397145445,1.041251597758234,0,0.3122315122458334,0.2474318697567363,0.9016743584083955,1350.622710622711,832.0512820512821,794.5787545787546,842.5274725274726,879.5970695970697,-0.213989,0.076172,0.974609,0.149536,-1.742096,-0.396271,443223.443223,131440732.600733,48227545.787546,112.592743,1,2,1,1,2,20.000000
2568-11-17 11:07:10.513,,,,,,,,,,,,,,,,,,,,,,,,,,,,,,,,,,,,,,,,,,/muse/elements/blink
2568-11-17 11:07:10.692,,,,,,,,,,,,,,,,,,,,,,,,,,,,,,,,,,,,,,,,,,/muse/elements/blink
2568-11-17 11:07:11.440,0,0.8842272149283008,0.8331975592738959,0.9051605810119158,0,0.5366076555886026,0.1954939668971002,0.7252020075924118,0,0.3413148140815955,0.3668939579319603,0.8678048882443244,0,0.4616651730703966,0.4803725275684491,1.041251597758234,0,0.372868950280056,0.3384839119086576,0.9016743584083955,643.8827838827839,839.3040293040293,787.7289377289378,788.9377289377289,950.1098901098901,-0.213623,0.066101,0.975525,-0.059814,-1.682281,0.059814,441611.721612,131215091.575092,48146959.706960,112.592743,1,2,1,1,2,20.000000
2568-11-17 11:07:11.857,,,,,,,,,,,,,,,,,,,,,,,,,,,,,,,,,,,,,,,,,,/muse/elements/blink
2568-11-17 11:07:12.444,0.9389047810328798,0.6195837902746919,0.7267562715722735,0.1747335680384925,0.4157838488322124,0.525135674133425,0.2754746690261638,0.3260955790435905,0.5823642759663876,0.6287345933884882,0.5599523645949268,0.2587706483349175,1.029145990159157,0.6606875666350088,0.4092372718387528,1.062409431217249,0.8360651383304987,0.3438409925602505,0.5803016202716653,0.8229761509680226,1054.871794871795,832.0512820512821,801.025641025641,717.6190476190476,909.4139194139194,-0.216125,0.070801,0.976135,0.112152,-1.084137,0.127106,442417.582418,131204615.384615,48169523.809524,112.592743,1,1,1,1,1,20.000000
2568-11-17 11:07:13.139,,,,,,,,,,,,,,,,,,,,,,,,,,,,,,,,,,,,,,,,,,/muse/elements/blink
2568-11-17 11:07:13.440,0.9389047810328798,0.8677732469203108,0.8772288129316249,0.1677687392598874,0.4157838488322124,0.6463574340927887,0.4117026716469212,0.3611441151678614,0.5823642759663876,0.6229996859629225,0.5195200206855379,0.2169970973657886,1.029145990159157,0.6108351940685043,0.2885005893172228,1.060921479562774,0.8360651383304987,0.3473302406536086,0.453394718233271,0.7948838160156095,1336.923076923077,827.2161172161173,808.2783882783883,865.8974358974359,686.5934065934066,-0.198730,0.075439,0.981445,0.971985,-3.364563,0.314026,442417.582418,131302930.402930,48243663.003663,112.592743,1,1,1,1,1,20.000000
2568-11-17 11:07:14.439,0.9389047810328798,0.3595051392590157,0.9271927586342329,0.4524607302951452,0.4157838488322124,-0.03304480199225675,0.6137188588078051,0.6822044840996404,0.5823642759663876,0.5609654944019108,0.5419182689471422,1.00732320004758,1.029145990159157,0.3340623971863107,0.4600057636232874,1.090827221806411,0.8360651383304987,0.282276979295813,0.02701128023052941,1.024687950980683,578.2051282051282,820.7692307692308,794.981684981685,783.2967032967033,937.6190476190476,-0.190613,0.082397,0.977356,-0.201874,-1.869202,-0.500946,442417.582418,131323076.923077,48266227.106227,112.592743,1,1,1,1,1,20.000000
2568-11-17 11:07:14.458,,,,,,,,,,,,,,,,,,,,,,,,,,,,,,,,,,,,,,,,,,/muse/elements/blink
2568-11-17 11:07:15.441,0.9389047810328798,0.09331048721947346,0.9552759676091648,0.7430861867574113,0.4157838488322124,0.05790601447892105,0.6639995704628984,0.8107007676976425,0.5823642759663876,0.3987623647481746,0.2178702617880401,1.1483524030237,1.029145990159157,0.4847791118344192,0.4652465175872684,1.061825359828048,0.8360651383304987,0.3504142129438473,0.1359446292161027,1.005377584849621,1174.945054945055,834.4688644688645,798.6080586080586,824.3956043956044,781.6849816849817,-0.198486,0.079956,0.977783,0.052338,-1.704712,-0.112152,442417.582418,131146593.406593,48200146.520147,112.592743,1,1,1,1,1,20.000000
2568-11-17 11:07:15.670,,,,,,,,,,,,,,,,,,,,,,,,,,,,,,,,,,,,,,,,,,/muse/elements/blink
2568-11-17 11:07:15.895,,,,,,,,,,,,,,,,,,,,,,,,,,,,,,,,,,,,,,,,,,/muse/elements/blink
2568-11-17 11:07:16.447,0.9389047810328798,0.7035674069786951,0.8673905306983124,0.8758957543920832,0.4157838488322124,0.3447674224901813,0.3554126345250112,0.8624129910812116,0.5823642759663876,0.4769853787727771,0.2184233905619868,1.029606103051947,1.029145990159157,0.620232085531347,0.3496685779827715,1.027142937379683,0.8360651383304987,0.2999756478969462,0.2861224165110873,1.013485270061773,1311.538461538462,838.4981684981685,778.0586080586081,863.4798534798535,601.978021978022,-0.199524,0.084351,0.976562,0.239258,-1.390686,0.007477,442417.582418,131140952.380952,48220293.040293,112.592743,1,1,1,1,1,20.000000
2568-11-17 11:07:17.110,,,,,,,,,,,,,,,,,,,,,,,,,,,,,,,,,,,,,,,,,,/muse/elements/blink
2568-11-17 11:07:17.440,0.9389047810328798,0.6947117682043115,0.9070087525156695,0.8758957543920832,0.4157838488322124,0.3316283113538644,0.1831742354693554,0.8624129910812116,0.5823642759663876,0.7049891819307368,0.3050356399706244,1.029606103051947,1.029145990159157,0.751201168902916,0.5032968958488154,1.027142937379683,0.8360651383304987,0.4938889640314474,0.2299886757712589,1.013485270061773,618.0952380952381,830.4395604395604,801.4285714285714,793.7728937728938,947.2893772893773,-0.194336,0.080505,0.978699,-0.209351,-1.644897,-0.149536,441611.721612,131278754.578755,48248498.168498,112.592743,1,1,1,1,1,20.000000
2568-11-17 11:07:18.343,,,,,,,,,,,,,,,,,,,,,,,,,,,,,,,,,,,,,,,,,,/muse/elements/blink
2568-11-17 11:07:18.443,1.25077238200264,0.6349668866939179,0.6204562185106466,0.3552354703433588,1.021153639268165,0.005965317050359475,0.126988722594727,0.2459176954314496,1.116757554065292,0.6508190976179616,0.3343536019309127,0.6801795430372546,1.331689231391176,0.768987567270266,0.5080643350669143,1.175511618650039,0.8816171857172764,0.6490443944954205,0.4644863983221562,0.9142752772503311,1118.131868131868,828.4249084249085,784.5054945054945,805.8608058608058,839.3040293040293,-0.199463,0.075195,0.977844,0.231781,-1.749573,0.171967,442417.582418,131086153.846154,48171941.391941,112.592743,1,1,1,1,1,20.000000
2568-11-17 11:07:19.440,1.003104509557797,0.2500123242730498,0.3327776146003518,0.3716382635330122,0.9813663444199264,0.06828591075996746,-0.1678551291922417,0.3821441884258309,1.132189605593115,0.4388292816259822,0.03887902492528696,0.7519379006613385,1.188887003869551,0.6401977251633231,0.4848045773084173,1.084268226132389,0.8892081164357533,0.6327393555643371,0.5548786084603138,1.052048998690986,1330.476190476191,825.2014652014652,791.7582417582418,861.0622710622711,674.1025641025641,-0.206299,0.073608,0.979553,-0.044861,-1.076660,0.231781,441611.721612,131156263.736264,48184029.304029,112.592743,1,1,1,1,1,20.000000
2568-11-17 11:07:19.740,,,,,,,,,,,,,,,,,,,,,,,,,,,,,,,,,,,,,,,,,,/muse/elements/blink
2568-11-17 11:07:20.440,0.4281645085636828,0.3013204458263429,0.6557926685774256,0.1535540444905072,0.8643944413729779,0.2910653954865486,0.2921625128183141,0.2947921885593237,0.7093124888050806,0.3608924160795736,0.4811966942288028,0.730494191592197,0.9790797971865586,0.5273835778267816,0.5170384951757937,0.9548935567959409,0.9881126127803976,0.3776759018278819,0.456121514858962,1.107793268219048,747.032967032967,811.9047619047619,777.6556776556777,824.7985347985348,866.7032967032967,-0.207520,0.080750,0.979431,0.306549,-1.188812,-0.448608,441611.721612,131252967.032967,48215457.875458,112.592743,1,1,1,1,1,20.000000
2568-11-17 11:07:20.952,,,,,,,,,,,,,,,,,,,,,,,,,,,,,,,,,,,,,,,,,,/muse/elements/blink
2568-11-17 11:07:21.151,,,,,,,,,,,,,,,,,,,,,,,,,,,,,,,,,,,,,,,,,,/muse/elements/blink
2568-11-17 11:07:21.452,0.4940325022616299,0.8768632882749915,0.7437993553172488,0.03296623356738466,0.7512370190737887,0.4277857601062252,0.5426098170104908,0.1160187091344188,0.5538728148699396,0.3760584748523096,0.5889826965883571,0.636894669637548,0.9844921280001639,0.6294509335507175,0.5307945197296888,0.8469987491298115,1.080599711472827,0.4381000667029731,0.337821086063573,1.091862980232955,966.6300366300367,815.934065934066,785.3113553113553,815.5311355311355,1117.728937728938,-0.208923,0.073975,0.976440,-0.082245,-1.816864,-0.381317,442417.582418,131091794.871795,48171941.391941,112.592743,1,1,1,1,1,20.000000
2568-11-17 11:07:22.361,,,,,,,,,,,,,,,,,,,,,,,,,,,,,,,,,,,,,,,,,,/muse/elements/blink
2568-11-17 11:07:22.440,0.4940325022616299,1.101263424643887,0.9445398616460138,0.03296623356738466,0.7512370190737887,0.6021683760988638,0.8195206223283837,0.1160187091344188,0.5538728148699396,0.1730486934079985,0.6774341541777298,0.636894669637548,0.9844921280001639,0.7347263469790983,0.4031372307568127,0.8469987491298115,1.080599711472827,0.5140094291485777,0.263042361685349,1.091862980232955,1361.501831501831,818.3516483516484,797.3992673992674,843.3333333333334,621.3186813186813,-0.203247,0.077026,0.973145,0.201874,-1.891632,0.149536,442417.582418,131021684.981685,48167106.227106,112.592743,1,1,1,1,1,20.000000
2568-11-17 11:07:23.440,0.4940325022616299,0.7526150055675805,0.6258238714022912,0.6358666637909977,0.7512370190737887,0.3868447142466701,0.4223421665713102,0.3318340717168212,0.5538728148699396,0.444617523935089,0.5314753162075645,1.299755445398029,0.9844921280001639,0.3136746282879826,0.440415618030596,0.9737917968839918,1.080599711472827,0.1696858288780646,0.3159955404895184,1.079755975179296,992.8205128205128,834.4688644688645,776.4468864468864,805.4578754578755,1129.41391941392,-0.198547,0.078979,0.980713,-0.059814,-1.555176,-0.112152,443223.443223,130996703.296703,48146959.706960,112.592743,1,2,1,1,2,20.000000
2568-11-17 11:07:23.685,,,,,,,,,,,,,,,,,,,,,,,,,,,,,,,,,,,,,,,,,,/muse/elements/blink
2568-11-17 11:07:24.439,0.4940325022616299,0.5684319196824933,0.7217584962933687,0.783837096116643,0.7512370190737887,0.3266030449018767,0.4491361539693202,0.5054070019398581,0.5538728148699396,0.4057811356094973,0.6166080441407708,1.31514737486771,0.9844921280001639,0.4509018912543939,0.3826119420256084,0.9407461307766799,1.080599711472827,0.1237146539420674,0.1230428971159326,0.9795922310122157,685.3846153846154,820.3663003663004,782.4908424908425,753.4798534798535,759.5238095238095,-0.195312,0.081421,0.980774,0.127106,-1.405640,0.089722,441611.721612,130751721.611722,48036556.776557,112.592743,1,1,1,1,1,20.000000
2568-11-17 11:07:24.899,,,,,,,,,,,,,,,,,,,,,,,,,,,,,,,,,,,,,,,,,,/muse/elements/blink
2568-11-17 11:07:25.318,,,,,,,,,,,,,,,,,,,,,,,,,,,,,,,,,,,,,,,,,,/muse/elements/blink
2568-11-17 11:07:25.439,0.93740408107105,0.2904670117201714,0.7713236185329038,0.6893263034577976,0.5477442201000396,0.2476107606178123,0.1730355882041209,0.6673039644589979,1.402134147700974,0.4546276113154973,0.1142114660012456,1.384378510843018,0.8045433268938387,0.3241510083303796,0.5063685901299352,0.9019470327931917,0.8533766499070229,0.1981935296602031,0.3793824867541373,0.8884965576323561,1273.260073260073,819.96336996337,788.9377289377289,840.5128205128206,623.7362637362637,-0.201721,0.074402,0.979614,-0.059814,-1.644897,-0.216827,441611.721612,130878241.758242,48038974.358974,112.592743,1,1,1,1,1,20.000000
2568-11-17 11:07:26.367,,,,,,,,,,,,,,,,,,,,,,,,,,,,,,,,,,,,,,,,,,/muse/elements/blink
2568-11-17 11:07:26.439,0.9598494449545658,0.329126122646536,0.8062087478818832,1.09092966023692,0.4965510290509919,-0.03933291198007938,0.4993234666836053,0.9535690024663624,1.395596831812403,0.4088913930291127,0.3709208574569045,1.390166777796469,0.8335671728787466,0.3239137107724098,0.4989467394429499,1.090222799291892,0.8728001000220429,0.2469610214369058,0.2367216809667745,0.7852622910536303,949.7069597069598,823.992673992674,787.3260073260074,798.6080586080586,619.3040293040293,-0.194946,0.071777,0.978210,-0.014954,-2.033691,0.201874,443223.443223,130776703.296703,48031721.611722,112.592743,1,1,1,1,1,20.000000
2568-11-17 11:07:27.440,0.9598494449545658,0.351189910563051,0.3750578985615735,0.6099924371965671,0.4965510290509919,0.003195659315355739,0.2582595221575811,0.3337604432665554,1.395596831812403,0.3584627233538781,0.6443298275854903,1.407722450373859,0.8335671728787466,0.3678200566663337,0.5042060269953209,1.025406587327295,0.8728001000220429,0.1152738384175206,0.2021557516362071,0.9123244346927062,341.6849816849817,822.3809523809524,791.7582417582418,747.032967032967,666.0439560439561,-0.195007,0.072754,0.976685,0.441132,-1.622467,0.239258,443223.443223,130597802.197802,48018827.838828,112.592743,1,1,1,1,1,20.000000
2568-11-17 11:07:27.508,,,,,,,,,,,,,,,,,,,,,,,,,,,,,,,,,,,,,,,,,,/muse/elements/blink
2568-11-17 11:07:28.440,0.536424337489942,0.5681570838425929,0.4316593595345249,1.231091137304696,0.8239937100257697,0.09291449531265848,0.2439534225532088,0.6211978438239614,1.133843089784932,0.4954204623494588,0.6066933454293321,1.343312851022838,0.9129131672611688,0.3004960735838733,0.246595575620751,0.8579065097342282,0.7200299379308901,-0.02243234803329349,0.1737731848026663,0.8015240446590869,1272.857142857143,822.7838827838829,786.9230769230769,832.8571428571429,726.4835164835165,-0.198242,0.076538,0.977417,0.201874,-1.951447,0.261688,441611.721612,130715457.875458,48057509.157509,112.592743,1,1,1,1,1,20.000000
2568-11-17 11:07:28.879,,,,,,,,,,,,,,,,,,,,,,,,,,,,,,,,,,,,,,,,,,/muse/elements/blink
2568-11-17 11:07:29.439,0.8215171307552692,0.3858026223123981,0.5840435862275152,0.8094586449091309,0.6385979201492871,0.0611087970889231,0.3041195382958454,0.3486213789200868,1.03803847180974,0.4902894985084608,0.6324790282835879,1.444108041775152,0.8484040599310041,0.4011559223601217,0.2423593262045821,1.05296029965348,0.6699213394526795,0.04393713507322827,-0.07370205393325512,0.8305365289531266,1147.545787545788,822.7838827838829,778.4615384615385,845.3479853479854,886.4468864468864,-0.193787,0.077942,0.977417,0.291595,-1.562653,0.276642,440805.860806,130419706.959707,47953553.113553,112.592743,1,1,1,1,1,20.000000
2568-11-17 11:07:30.117,,,,,,,,,,,,,,,,,,,,,,,,,,,,,,,,,,,,,,,,,,/muse/elements/blink
2568-11-17 11:07:30.316,,,,,,,,,,,,,,,,,,,,,,,,,,,,,,,,,,,,,,,,,,/muse/elements/blink
2568-11-17 11:07:30.440,1.132437903522614,0.6342811719163549,0.5197787417558419,0.7685818618589213,0.3582158119999928,0.2839661188849211,0.3744049646642105,0.3037648998293341,0.9520786961598071,0.4509048194440708,0.5584973364517049,1.450487307932922,0.7404637725522767,0.4214400882635527,0.3925896738217579,1.076136314346034,0.567674876293511,0.1645966410545945,0.04318085416476857,0.8824795990438367,546.7765567765568,805.8608058608058,793.3699633699634,775.2380952380953,872.3443223443223,-0.199951,0.079468,0.978271,0.074768,-2.078552,0.134583,442417.582418,130465641.025641,47939047.619048,112.592743,1,1,1,1,1,20.000000
2568-11-17 11:07:31.439,1.123450314603635,1.004610526949954,0.5760956977481088,0.5860897336879136,0.2977681136287497,0.5464789043455319,0.3130846000240271,0.1618424387504637,0.9297223070123076,0.7359709734801162,0.5882510915444669,1.441286034511068,0.7229451424129121,0.6237962710906785,0.5501178499073753,1.113944721577119,0.5661873541412419,0.3720024575986917,0.2555970271389508,0.9043443407606671,1065.347985347985,845.7509157509157,741.7948717948718,701.9047619047619,782.893772893773,-0.197083,0.084656,0.981384,-0.074768,-1.734619,-0.433655,442417.582418,130371355.311355,47896336.996337,112.592743,1,1,1,1,1,20.000000
2568-11-17 11:07:31.615,,,,,,,,,,,,,,,,,,,,,,,,,,,,,,,,,,,,,,,,,,/muse/elements/blink
2568-11-17 11:07:32.439,1.123450314603635,0.8197673351828163,0.5494380036739664,0.5860897336879136,0.2977681136287497,0.2599661707194421,0.09492579619819132,0.1618424387504637,0.9297223070123076,0.6996144728846925,0.3384797160611154,1.441286034511068,0.7229451424129121,0.5911884440528282,0.5229904581940328,1.113944721577119,0.5661873541412419,0.3537340992640228,0.2743864529069043,0.9043443407606671,1266.007326007326,815.934065934066,788.1318681318681,837.6923076923077,767.1794871794872,-0.190918,0.087097,0.977478,0.710297,0.568237,-0.403748,441611.721612,130517216.117216,47913260.073260,112.592743,1,2,1,1,2,20.000000
2568-11-17 11:07:32.726,,,,,,,,,,,,,,,,,,,,,,,,,,,,,,,,,,,,,,,,,,/muse/elements/blink
2568-11-17 11:07:32.969,,,,,,,,,,,,,,,,,,,,,,,,,,,,,,,,,,,,,,,,,,/muse/elements/blink
2568-11-17 11:07:33.347,,,,,,,,,,,,,,,,,,,,,,,,,,,,,,,,,,,,,,,,,,/muse/elements/blink
2568-11-17 11:07:33.452,1.123450314603635,0.5903821041837775,0.413681215813389,0.5860897336879136,0.2977681136287497,0.02653996554628121,0.06928737679303923,0.1618424387504637,0.9297223070123076,0.3115748967991613,0.3174579970509857,1.441286034511068,0.7229451424129121,0.5903954253645277,0.6720411230562834,1.113944721577119,0.5661873541412419,0.3639123788087207,0.5582328328569485,0.9043443407606671,469.8168498168498,836.8864468864469,790.5494505494506,776.8498168498169,658.7912087912088,-0.309509,0.027344,0.948425,-5.181427,8.650665,0.044861,438388.278388,130718681.318681,47921318.681319,112.592743,1,2,1,1,2,20.000000
2568-11-17 11:07:34.048,,,,,,,,,,,,,,,,,,,,,,,,,,,,,,,,,,,,,,,,,,/muse/elements/blink
2568-11-17 11:07:34.440,1.123450314603635,0.5903821041837775,0.3318089745475328,0.5860897336879136,0.2977681136287497,0.02653996554628121,0.06392369358510006,0.1618424387504637,0.9297223070123076,0.3115748967991613,0.3903331339522988,1.441286034511068,0.7229451424129121,0.5903954253645277,0.7222634218492159,1.113944721577119,0.5661873541412419,0.3639123788087207,0.5664526160263255,0.9043443407606671,981.941391941392,839.3040293040293,782.893772893773,830.4395604395604,619.7069597069598,-0.355957,0.042297,0.925903,1.457977,-12.531128,-10.347900,439194.139194,130973333.333333,48070402.930403,112.592743,1,2,1,1,2,20.000000
2568-11-17 11:07:35.439,1.123450314603635,0.5903821041837775,0.3171311346359322,0.5860897336879136,0.2977681136287497,0.02653996554628121,0.092752422207771,0.1618424387504637,0.9297223070123076,0.3115748967991613,0.335925576192264,1.441286034511068,0.7229451424129121,0.5903954253645277,0.8068584701722783,1.113944721577119,0.5661873541412419,0.3639123788087207,0.5259748849007165,0.9043443407606671,1361.501831501831,805.4578754578755,816.7399267399268,899.7435897435897,1145.128205128205,-0.291504,0.023376,0.960327,2.287903,-2.422485,2.960815,440805.860806,131128058.608059,48196117.216117,112.592743,1,2,1,1,2,20.000000
2568-11-17 11:07:35.502,,,,,,,,,,,,,,,,,,,,,,,,,,,,,,,,,,,,,,,,,,/muse/elements/blink
2568-11-17 11:07:35.862,,,,,,,,,,,,,,,,,,,,,,,,,,,,,,,,,,,,,,,,,,/muse/elements/blink
2568-11-17 11:07:36.447,1.123450314603635,0.5903821041837775,0.3171311346359322,0.5860897336879136,0.2977681136287497,0.02653996554628121,0.092752422207771,0.1618424387504637,0.9297223070123076,0.3115748967991613,0.335925576192264,1.441286034511068,0.7229451424129121,0.5903954253645277,0.8068584701722783,1.113944721577119,0.5661873541412419,0.3639123788087207,0.5259748849007165,0.9043443407606671,340.8791208791209,829.2307692307693,767.985347985348,768.3882783882784,1007.326007326007,-0.177063,0.058594,0.988586,-0.538330,-2.497253,1.383209,441611.721612,130812161.172161,48118754.578755,112.592743,1,2,1,1,2,20.000000
2568-11-17 11:07:36.805,,,,,,,,,,,,,,,,,,,,,,,,,,,,,,,,,,,,,,,,,,/muse/elements/blink
2568-11-17 11:07:37.439,1.123450314603635,0.5903821041837775,1.319574961121131,0.5860897336879136,0.2977681136287497,0.02653996554628121,0.4572069102875136,0.1618424387504637,0.9297223070123076,0.3115748967991613,0.3543861455539009,1.441286034511068,0.7229451424129121,0.5903954253645277,0.5349670459394408,1.113944721577119,0.5661873541412419,0.3639123788087207,0.1139594961146204,0.9043443407606671,995.2380952380953,827.6190476190476,775.6410256410256,746.6300366300367,754.2857142857143,-0.195862,0.039673,0.978210,-0.209351,-0.456085,0.351410,442417.582418,130726739.926740,48047838.827839,112.592743,1,2,1,1,2,20.000000
2568-11-17 11:07:38.201,,,,,,,,,,,,,,,,,,,,,,,,,,,,,,,,,,,,,,,,,,/muse/elements/blink
2568-11-17 11:07:38.440,1.123450314603635,0.5903821041837775,1.038176738881503,0.5860897336879136,0.2977681136287497,0.02653996554628121,0.4122067967663312,0.1618424387504637,0.9297223070123076,0.3115748967991613,0.5290411302298952,1.441286034511068,0.7229451424129121,0.5903954253645277,0.4482482237793432,1.113944721577119,0.5661873541412419,0.3639123788087207,0.1436211786632151,0.9043443407606671,1432.417582417582,818.3516483516484,775.2380952380953,829.6336996336996,676.1172161172161,-0.204346,0.044678,0.972534,0.605621,-2.056122,0.351410,442417.582418,130399560.439560,47937435.897436,112.592743,1,2,1,1,2,20.000000
2568-11-17 11:07:39.439,1.123450314603635,0.410011388563899,0.8621284939141221,0.7280504639487175,0.2977681136287497,0.1855529653581157,0.5694071608002663,0.8680624997858036,0.9297223070123076,0.363113649100941,0.7744486714884654,1.261550343870242,0.7229451424129121,0.5015132459243019,0.5402422843238733,0.9907028012028802,0.5661873541412419,0.4704087733142496,0.1585034484436555,0.9450561031444286,163.1868131868132,823.5897435897436,808.6813186813187,692.2344322344322,850.5860805860806,-0.191956,0.053528,0.980774,0.246735,-1.114044,0.553284,443223.443223,130480952.380952,47927765.567766,112.592743,1,2,1,1,1,20.000000
2568-11-17 11:07:39.526,,,,,,,,,,,,,,,,,,,,,,,,,,,,,,,,,,,,,,,,,,/muse/elements/blink
2568-11-17 11:07:40.450,1.123450314603635,0.6123356511256007,1.2070771865893,0.7280504639487175,0.2977681136287497,0.2117680828785962,0.8236514781236723,0.8680624997858036,0.9297223070123076,0.5823562665246117,0.6937493970707189,1.261550343870242,0.7229451424129121,0.3472836515713826,0.5059270605462295,0.9907028012028802,0.5661873541412419,0.1799356823394599,0.1481620629728679,0.9450561031444286,879.1941391941392,807.0695970695971,773.2234432234433,762.3443223443223,528.6446886446887,-0.188416,0.050476,0.982300,0.426178,-1.368256,-0.044861,444029.304029,130295604.395604,47871355.311355,112.592743,1,1,1,1,1,20.000000
2568-11-17 11:07:40.743,,,,,,,,,,,,,,,,,,,,,,,,,,,,,,,,,,,,,,,,,,/muse/elements/blink
2568-11-17 11:07:41.077,,,,,,,,,,,,,,,,,,,,,,,,,,,,,,,,,,,,,,,,,,/muse/elements/blink
2568-11-17 11:07:41.440,1.123450314603635,0.6344575376902202,1.001007808134686,0.7610899126485192,0.2977681136287497,0.2620460761065581,0.4732303115888433,0.3500540773290279,0.9297223070123076,0.6338503241602597,0.7153040069777915,1.073297682978412,0.7229451424129121,0.2857355166878843,0.4397927295049651,0.796986526123113,0.5661873541412419,0.1168959537977758,0.08781942243207601,1.035428585012289,418.6446886446886,820.7692307692308,798.2051282051282,746.6300366300367,630.5860805860806,-0.194946,0.051086,0.977722,-0.157013,-1.091614,0.119629,444835.164835,130364102.564103,47910036.630037,112.592743,1,1,1,1,1,20.000000
2568-11-17 11:07:42.282,,,,,,,,,,,,,,,,,,,,,,,,,,,,,,,,,,,,,,,,,,/muse/elements/blink
2568-11-17 11:07:42.451,1.123450314603635,0.6308472080230298,0.8793264667897246,0.9138382008164199,0.2977681136287497,0.31003931046708,0.3955627956926694,0.6664399954340152,0.9297223070123076,0.4928644109680028,0.6702306504344809,1.246759840061874,0.7229451424129121,0.2433881245541146,0.369665659006935,0.8761947642075786,0.5661873541412419,0.2053321327159317,-0.06982699102579383,1.194199513630045,198.6446886446886,819.96336996337,794.5787545787546,714.3956043956044,911.4285714285714,-0.180420,0.056702,0.979370,-0.037384,-1.943970,0.246735,443223.443223,130270622.710623,47921318.681319,112.592743,1,1,1,1,1,20.000000
2568-11-17 11:07:43.415,,,,,,,,,,,,,,,,,,,,,,,,,,,,,,,,,,,,,,,,,,/muse/elements/blink
2568-11-17 11:07:43.439,1.123450314603635,0.7817023366525194,0.9224149080016891,0.6802139575217337,0.2977681136287497,0.4475627551276387,0.3793132642327851,0.4340563846287711,0.9297223070123076,0.5234049625895084,0.6444375190105147,1.238210385896141,0.7229451424129121,0.3359562574590743,0.4141756065928607,0.8358112313982901,0.5661873541412419,0.1828743668807992,-0.0009443019106019188,1.112473920415344,894.1025641025641,820.7692307692308,786.5201465201466,819.1575091575091,501.6483516483516,-0.180786,0.058167,0.980835,0.231781,-1.869202,0.239258,444029.304029,130249670.329670,47918901.098901,112.592743,1,1,1,1,1,20.000000
2568-11-17 11:07:43.601,,,,,,,,,,,,,,,,,,,,,,,,,,,,,,,,,,,,,,,,,,/muse/elements/blink
2568-11-17 11:07:44.440,1.123450314603635,0.3537968289257693,0.6874391540630715,0.2989397766779545,0.2977681136287497,0.2219707476727698,0.1714858230434837,0.4066680042842184,0.9297223070123076,0.4736794510830853,0.4054786090766412,0.6891264838685861,0.7229451424129121,0.387958577933798,0.4157174793984572,0.8956214226031226,0.5661873541412419,0.2048043501295372,-0.06942721866956408,1.012604140852627,1437.655677655678,820.3663003663004,788.5347985347986,865.8974358974359,1279.70695970696,-0.188354,0.057312,0.980591,0.149536,-1.757050,0.179443,444029.304029,130356043.956044,47960000.000000,112.592743,1,1,1,1,1,20.000000
2568-11-17 11:07:44.730,,,,,,,,,,,,,,,,,,,,,,,,,,,,,,,,,,,,,,,,,,/muse/elements/blink
2568-11-17 11:07:45.439,1.123450314603635,0.228689854239514,0.722006839607265,0.7912300934970614,0.2977681136287497,0.09817037197683387,0.3348910919121094,0.6896082136471442,0.9297223070123076,0.2892869697840034,0.3075337555572634,0.836546754723286,0.7229451424129121,0.3229200467739911,0.463593491037416,0.9679310206357051,0.5661873541412419,0.2686050207383726,0.01410807252051167,0.8920119693145483,189.7802197802198,807.8754578754579,782.893772893773,721.2454212454213,626.1538461538462,-0.186218,0.056702,0.979248,0.179443,-2.093506,-0.239258,445641.025641,130313333.333333,47984981.684982,112.592743,1,1,1,1,1,20.000000
2568-11-17 11:07:45.959,,,,,,,,,,,,,,,,,,,,,,,,,,,,,,,,,,,,,,,,,,/muse/elements/blink
2568-11-17 11:07:46.440,1.123450314603635,0.3177091351985469,0.8790387095603878,0.7358823748878136,0.2977681136287497,0.2096521314825992,0.2050331584204394,0.5291391055072578,0.9297223070123076,0.3767606378977098,0.4710960325855047,0.8058888836971176,0.7229451424129121,0.3517099358989441,0.428674191786447,0.9025414406535301,0.5661873541412419,0.1777291023344743,0.1007685134747857,0.9428606848054004,1068.168498168498,805.8608058608058,795.7875457875458,801.4285714285714,526.2271062271062,-0.184448,0.059448,0.980591,0.216827,-1.577606,0.358887,444029.304029,130260146.520147,47967252.747253,112.592743,1,1,1,1,1,20.000000
2568-11-17 11:07:47.162,,,,,,,,,,,,,,,,,,,,,,,,,,,,,,,,,,,,,,,,,,/muse/elements/blink
2568-11-17 11:07:47.340,,,,,,,,,,,,,,,,,,,,,,,,,,,,,,,,,,,,,,,,,,/muse/elements/blink
2568-11-17 11:07:47.439,1.123450314603635,0.2249884512866017,0.846060019621737,0.4317542482990085,0.2977681136287497,0.2487379850747324,0.4080689680810918,0.1739555757272586,0.9297223070123076,0.3545660132959139,0.4843515312624317,0.9426149498282768,0.7229451424129121,0.403198625479872,0.3191762153469505,0.9545036289201609,0.5661873541412419,0.0816391884693906,-0.05008511938485913,0.9137354705509145,1381.648351648352,816.3369963369963,796.5934065934066,851.3919413919414,852.1978021978023,-0.189270,0.059692,0.981323,-0.186920,-1.585083,0.201874,444835.164835,130295604.395604,47984981.684982,112.592743,1,1,1,1,1,20.000000
2568-11-17 11:07:48.443,1.123450314603635,0.6382411462357132,0.8779054120433716,1.222584714856851,0.2977681136287497,0.3437900496519853,0.5393328275098157,0.843894873279308,0.9297223070123076,0.3874013290778124,0.4856666853602363,0.9367582701922532,0.7229451424129121,0.4248595174332791,0.2859128555456018,0.8238689236133453,0.5661873541412419,-0.09051535555553238,-0.007436398319979029,0.903792481105715,334.0293040293041,807.4725274725275,794.5787545787546,740.5860805860806,875.5677655677656,-0.187988,0.056152,0.980408,-0.134583,-1.248627,-0.261688,444835.164835,130054652.014652,47882637.362637,112.592743,1,1,1,1,1,20.000000
2568-11-17 11:07:48.476,,,,,,,,,,,,,,,,,,,,,,,,,,,,,,,,,,,,,,,,,,/muse/elements/blink
2568-11-17 11:07:49.439,1.123450314603635,0.2225317061976056,0.1804186486067386,0.6137563755294208,0.2977681136287497,-0.1597277936194098,0.01387102708562342,0.7583410864562979,0.9297223070123076,0.09151020167775735,0.5319145190236635,1.10580869303881,0.7229451424129121,0.4160390547944066,0.2795708578289408,1.086269266961482,0.5661873541412419,0.08531977355021986,0.1508118567241182,0.9791610017295981,1216.043956043956,815.934065934066,771.6117216117216,812.3076923076924,680.5494505494506,-0.185425,0.061707,0.984863,0.164490,-1.263580,0.104675,444835.164835,130105421.245421,47860879.120879,112.592743,1,1,1,1,1,20.000000
2568-11-17 11:07:49.874,,,,,,,,,,,,,,,,,,,,,,,,,,,,,,,,,,,,,,,,,,/muse/elements/blink
2568-11-17 11:07:50.439,1.479847045036901,0.02536149805799689,0.5018454170655461,0.88907724146028,1.234065538571201,0.03089448479772998,0.1653321708039896,0.6821019922858743,1.116716892904738,0.2751734518575311,0.5735932429038524,1.122537188959078,0.8543243275989169,0.3969878798495338,0.3322044572890543,0.9899301967602446,0.7169001861647314,0.2133752982837717,0.0967336675479543,1.024981101073292,1226.520146520146,830.4395604395604,805.8608058608058,846.5567765567765,753.8827838827839,-0.187378,0.063782,0.980774,0.029907,-1.764526,0.119629,444029.304029,130042564.102564,47848791.208791,112.592743,1,1,1,1,1,20.000000
2568-11-17 11:07:51.009,,,,,,,,,,,,,,,,,,,,,,,,,,,,,,,,,,,,,,,,,,/muse/elements/blink
2568-11-17 11:07:51.439,1.611630349548695,0.2686060008337171,0.9042535888189011,1.167405182449138,1.141146020031395,0.3811855562284345,0.352544543117469,0.6093541661000972,1.086136766745423,0.3232532376827761,0.4478880736492952,0.9021842512644301,0.9146710611154406,0.4125552753017963,0.4251932074327893,0.8144061248113135,0.6038475120480272,0.08312642191823243,0.04437972292401268,0.9661641434204027,450.0732600732601,804.6520146520147,795.3846153846154,840.5128205128206,866.7032967032967,-0.180969,0.062744,0.983276,0.179443,-1.644897,-0.022430,444029.304029,129914432.234432,47842344.322344,112.592743,1,1,1,1,1,20.000000
2568-11-17 11:07:51.441,,,,,,,,,,,,,,,,,,,,,,,,,,,,,,,,,,,,,,,,,,/muse/elements/blink
2568-11-17 11:07:52.140,,,,,,,,,,,,,,,,,,,,,,,,,,,,,,,,,,,,,,,,,,/muse/elements/blink
2568-11-17 11:07:52.439,1.665526874345262,0.7305431104388722,0.8697723857223739,1.311139019179125,1.124036338208039,0.6931498908945223,0.53871698172311,0.6694102250252868,1.176399147623522,0.5109931066523646,0.4697202876304806,0.8948222894991708,0.8753430395428281,0.4373181495627767,0.4953906354145941,0.8145656555081618,0.738122748180287,0.1641906095224517,0.04456394195543218,1.004721552720585,1438.058608058608,837.6923076923077,788.9377289377289,851.7948717948718,588.6813186813187,-0.179321,0.065186,0.986877,0.261688,-1.435547,0.314026,444029.304029,130042564.102564,47863296.703297,112.592743,1,1,1,1,1,20.000000
2568-11-17 11:07:52.461,,,,,,,,,,,,,,,,,,,,,,,,,,,,,,,,,,,,,,,,,,/muse/elements/blink
2568-11-17 11:07:53.439,1.665526874345262,0.6418162803645652,0.5974305872828465,1.311139019179125,1.124036338208039,0.4674674926127991,0.4602169017735604,0.6694102250252868,1.176399147623522,0.4375020927317464,0.3174752947414904,0.8948222894991708,0.8753430395428281,0.6582385702339552,0.453757463277201,0.8145656555081618,0.738122748180287,0.3302990294208574,0.2502230119838204,1.004721552720585,1001.282051282051,811.0989010989011,792.1611721611722,866.7032967032967,1314.761904761905,-0.187866,0.068604,0.981445,0.074768,-1.622467,0.119629,444835.164835,130124761.904762,47866520.146520,112.592743,1,2,1,1,2,20.000000
2568-11-17 11:07:53.779,,,,,,,,,,,,,,,,,,,,,,,,,,,,,,,,,,,,,,,,,,/muse/elements/blink
2568-11-17 11:07:54.440,1.665526874345262,0.5888334519633868,0.5617202779517487,1.311139019179125,1.124036338208039,0.4638530181616601,0.1420745218368231,0.6694102250252868,1.176399147623522,0.4829637885109969,0.2886178241954245,0.8948222894991708,0.8753430395428281,0.644518827000596,0.4798824177306018,0.8145656555081618,0.738122748180287,0.3611782377236958,0.490593470521411,1.004721552720585,937.6190476190476,837.2893772893773,786.1172161172161,831.2454212454213,807.8754578754579,-0.181274,0.067627,0.981384,0.059814,-1.742096,-0.209351,446446.886447,130083663.003663,47880219.780220,112.592743,1,2,1,1,2,20.000000
2568-11-17 11:07:54.901,,,,,,,,,,,,,,,,,,,,,,,,,,,,,,,,,,,,,,,,,,/muse/elements/blink
2568-11-17 11:07:55.439,1.665526874345262,0.7289849118613125,0.6752627928406579,0.5076642472584383,1.124036338208039,0.6137196597484861,0.2272424628434322,0.9918005752419456,1.176399147623522,0.3398824435945544,0.3928391534375394,1.136483448372251,0.8753430395428281,0.4809431527116552,0.4836467299808123,1.219229528251247,0.738122748180287,0.1542644767700609,0.5160874421589994,1.373193442257385,1296.630036630037,815.1282051282052,774.4322344322345,809.8901098901099,584.6520146520147,-0.182617,0.067444,0.981262,0.351410,-1.121521,0.171967,444029.304029,129986959.706960,47844761.904762,112.592743,1,1,1,1,1,20.000000
2568-11-17 11:07:56.439,1.665526874345262,0.2751470143339447,0.7545829450580718,0.3088608779222182,1.124036338208039,0.2078380711722918,0.2358131432105597,0.3416998485612984,1.176399147623522,0.4377061281893259,0.2987255120969399,0.9709540182876436,0.8753430395428281,0.5990553160562929,0.3469254105067029,1.013852912612686,0.738122748180287,0.3626360004295759,0.3430058723631908,1.127238318323547,517.7655677655678,809.4871794871796,790.952380952381,783.2967032967033,504.0659340659341,-0.183533,0.068298,0.984619,0.067291,-1.749573,0.007477,444835.164835,130091721.611722,47872967.032967,112.592743,1,1,1,1,1,20.000000
2568-11-17 11:07:56.932,,,,,,,,,,,,,,,,,,,,,,,,,,,,,,,,,,,,,,,,,,/muse/elements/blink
2568-11-17 11:07:57.452,1.665526874345262,0.7855633860451494,0.8919204141399291,0.7624966623423378,1.124036338208039,0.8178141359892266,0.5924760504772351,0.4819188920810781,1.176399147623522,0.9065693856876499,0.3472837832825214,0.6293095542205273,0.8753430395428281,0.5370901836825822,0.3948189909635792,0.919978640579844,0.738122748180287,0.3263681789938312,0.243259070387567,1.280419240030596,765.9706959706959,832.8571428571429,805.4578754578755,811.9047619047619,616.4835164835165,-0.182800,0.058838,0.983643,-0.284119,-1.540222,-0.022430,444029.304029,129872527.472527,47831868.131868,112.592743,1,1,1,1,1,20.000000
2568-11-17 11:07:58.058,,,,,,,,,,,,,,,,,,,,,,,,,,,,,,,,,,,,,,,,,,/muse/elements/blink
2568-11-17 11:07:58.439,1.665526874345262,0.9633358711565807,0.8622229271119876,0.7624966623423378,1.124036338208039,0.966505880774824,0.6764720533930025,0.4819188920810781,1.176399147623522,0.9072146261589463,0.3022788705843774,0.6293095542205273,0.8753430395428281,0.3440971511686529,0.4954666294126724,0.919978640579844,0.738122748180287,0.361359191814584,0.4056807221048036,1.280419240030596,398.0952380952381,808.2783882783883,785.7142857142858,756.3003663003664,894.1025641025641,-0.185486,0.065857,0.981750,0.336456,-1.315918,0.493469,441611.721612,129965201.465201,47791575.091575,112.592743,1,1,1,1,1,20.000000
2568-11-17 11:07:59.439,1.665526874345262,0.2623925930622305,0.09982159031635998,0.9415357640619106,1.124036338208039,-0.09065773240361569,-0.128301121018433,0.6904996114845556,1.176399147623522,0.2952392415549481,0.3197385646809959,0.6841287775401964,0.8753430395428281,0.3883050462775827,0.5420527502620415,1.016982843062888,0.738122748180287,0.4227264635311778,0.5037675085628615,0.9536514279076256,849.3772893772895,826.007326007326,787.3260073260074,778.4615384615385,570.952380952381,-0.192871,0.066101,0.982117,0.224304,-1.555176,-0.014954,440805.860806,129977289.377289,47796410.256410,112.592743,1,1,1,1,1,20.000000
2568-11-17 11:07:59.643,,,,,,,,,,,,,,,,,,,,,,,,,,,,,,,,,,,,,,,,,,/muse/elements/blink
2568-11-17 11:08:00.439,1.665526874345262,0.5655269272617018,0.2912910801278891,0.9415357640619106,1.124036338208039,0.1936174646985117,0.1382483091798548,0.6904996114845556,1.176399147623522,0.3819175662638358,0.4235170782210074,0.6841287775401964,0.8753430395428281,0.4794040152829104,0.6293467395763886,1.016982843062888,0.738122748180287,0.4308663445924058,0.4436218687730751,0.9536514279076256,479.0842490842491,829.2307692307693,804.2490842490843,761.941391941392,560.0732600732601,-0.192688,0.068176,0.979858,0.104675,-1.345825,0.194397,443223.443223,129776630.036630,47728717.948718,112.592743,1,1,1,1,1,20.000000
2568-11-17 11:08:00.571,,,,,,,,,,,,,,,,,,,,,,,,,,,,,,,,,,,,,,,,,,/muse/elements/blink
2568-11-17 11:08:01.448,0.7257416180234614,0.7595513871869126,0.7505665945163487,0.6409859573149197,0.1420588424335622,0.2017577702481532,0.4771282406331684,0.8021371463190395,0.5301871564207519,0.4781142616641417,0.3866925849697888,0.4626357921744708,0.6787642157451238,0.4983721017549752,0.500543215015162,1.240720286647538,0.6034752604578663,0.3242323691558449,0.5791690554502603,0.6844699626660345,406.1538461538462,813.919413919414,787.7289377289378,753.0769230769231,609.2307692307693,-0.194214,0.069763,0.981323,-0.022430,-1.009369,0.134583,443223.443223,129801611.721612,47735164.835165,112.592743,1,1,1,1,1,20.000000
2568-11-17 11:08:01.984,,,,,,,,,,,,,,,,,,,,,,,,,,,,,,,,,,,,,,,,,,/muse/elements/blink
2568-11-17 11:08:02.439,0.8856737417174905,0.5987562970868503,0.4181944866121865,0.5867604473092062,0.4157499558511673,0.1678617023978265,0.3767199020548293,0.7033162838815059,0.8190573605186022,0.4982952041752347,0.3811857260883841,0.600972982004872,0.7132503972297185,0.5021199873410985,0.4707419957281504,1.137493303472562,0.6494771802046059,0.2445992510747266,0.5196756370782326,0.8988214331365746,1129.81684981685,823.1868131868132,790.952380952381,823.1868131868132,554.0293040293041,-0.189575,0.068665,0.980469,0.044861,-1.973877,0.164490,444835.164835,129876556.776557,47773040.293040,112.592743,1,1,1,1,1,20.000000
2568-11-17 11:08:03.110,,,,,,,,,,,,,,,,,,,,,,,,,,,,,,,,,,,,,,,,,,/muse/elements/blink
2568-11-17 11:08:03.439,1.066992769833412,0.6509904999791447,0.5325119799669957,0.5653249214620076,0.999190221199669,0.2559811241012316,0.4333452158049086,0.4618083680583066,0.9455863919319412,0.5408608858789348,0.6656873996161226,0.6318183703877149,0.9303919204437355,0.5742102005860004,0.5529104043277392,1.08462443907405,0.7626160365002375,0.4178840591470765,0.311150429692612,1.08302151434745,1136.263736263736,803.8461538461539,799.8168498168499,819.1575091575091,853.0036630036631,-0.189697,0.067444,0.979126,0.067291,-1.263580,0.964508,444029.304029,129675091.575092,47701318.681319,112.592743,1,1,1,1,1,20.000000
2568-11-17 11:08:04.335,,,,,,,,,,,,,,,,,,,,,,,,,,,,,,,,,,,,,,,,,,/muse/elements/blink
2568-11-17 11:08:04.439,1.115715657018169,0.9471507604556335,0.868750721478412,0.4496912251672522,1.045121500981161,0.588226696641567,0.413693837267339,0.3956837486151158,0.9296030521204197,0.5681648612058262,0.610867038616123,0.5445094136775721,0.8484722840930012,0.5080058251945354,0.4996884968808703,1.079488747208797,0.9375160009377869,0.2840962587882963,0.1094828984828354,1.115294316815121,652.7472527472528,800.6227106227107,788.1318681318681,750.2564102564103,882.4175824175825,-0.191772,0.071106,0.979858,0.022430,-2.018738,-0.216827,445641.025641,129712161.172161,47731941.391941,112.592743,1,1,1,1,1,20.000000
2568-11-17 11:08:04.512,,,,,,,,,,,,,,,,,,,,,,,,,,,,,,,,,,,,,,,,,,/muse/elements/blink
2568-11-17 11:08:05.455,1.163469531952507,0.5869011198698787,0.3223070341538208,0.4496912251672522,1.105265004146609,0.4919665797849319,-0.0987527513197495,0.3956837486151158,0.7999645702133538,0.3264272749668121,0.09018272762083648,0.5445094136775721,0.7841776162940606,0.5143253529605408,0.7138308482837722,1.079488747208797,0.9598446325152168,0.2569198028142659,0.3874827143343855,1.115294316815121,1303.479853479854,830.0366300366301,793.7728937728938,848.5714285714286,685.7875457875458,-0.186462,0.073364,0.978760,0.067291,-1.667328,-0.254211,444835.164835,129637216.117216,47666666.666667,112.592743,1,1,1,1,1,20.000000
2568-11-17 11:08:05.641,,,,,,,,,,,,,,,,,,,,,,,,,,,,,,,,,,,,,,,,,,/muse/elements/blink
2568-11-17 11:08:06.449,0.4712730396541971,0.5845332819936221,0.6347690499111724,0.2353990883878625,0.6128712580911506,0.5027569618944906,0.5596021617218799,0.5084177623683406,0.8128346393417269,0.2262717826655161,0.6035279118870873,0.8403477863190055,0.7283283554982585,0.5086351093915222,0.7318225890291993,1.079965235769643,0.7741757008401861,0.3111021391813678,0.431216029933562,1.094515042176192,340.4761904761905,822.3809523809524,794.5787545787546,750.2564102564103,576.996336996337,-0.188782,0.075745,0.979553,0.239258,-1.323395,-0.231781,445641.025641,129600146.520147,47661831.501832,112.592743,1,1,1,1,1,20.000000
2568-11-17 11:08:06.768,,,,,,,,,,,,,,,,,,,,,,,,,,,,,,,,,,,,,,,,,,/muse/elements/blink
2568-11-17 11:08:07.450,0.4712730396541971,0.6353645242275469,0.7139452087740834,0.1323930300622523,0.6128712580911506,0.3638924610819708,0.6812414369617739,0.5618720659752054,0.8128346393417269,0.3298147350608844,0.7122284459285538,0.8334480873167447,0.7283283554982585,0.6171264727510837,0.6376909876124087,1.044649450117058,0.7741757008401861,0.371642253184575,0.4112853942281943,1.15896483866203,948.4981684981685,839.3040293040293,800.6227106227107,840.5128205128206,730.9157509157509,-0.200745,0.074036,0.984131,-0.171967,-1.413116,-0.314026,445641.025641,129649304.029304,47717435.897436,112.592743,1,1,1,1,1,20.000000
2568-11-17 11:08:08.071,,,,,,,,,,,,,,,,,,,,,,,,,,,,,,,,,,,,,,,,,,/muse/elements/blink
2568-11-17 11:08:08.438,0.5592623209582952,0.842370401986527,0.4726488861089775,0.826680309599707,0.3880176826438653,0.4191167628391405,0.1031075543207744,0.675459093851979,0.560635924150981,0.4055330070296221,0.6135201706973626,0.6706690882364346,0.8348743431832686,0.6014184900491552,0.6707508993344837,1.072205272243834,0.8228059954404418,0.2683893997323252,0.4951487726486908,1.159658470518274,1250.29304029304,803.8461538461539,785.7142857142858,831.2454212454213,688.6080586080586,-0.190308,0.072449,0.986877,-0.089722,-1.794434,-0.254211,444835.164835,129708131.868132,47734358.974359,112.592743,1,1,1,1,1,20.000000
2568-11-17 11:08:09.396,,,,,,,,,,,,,,,,,,,,,,,,,,,,,,,,,,,,,,,,,,/muse/elements/blink
2568-11-17 11:08:09.439,0.593908274354626,0.9384621955621374,0.5256359521193131,0.7529474239049821,0.1274095622248334,0.5473568289062789,0.435309649487125,0.5775122543399329,0.5801231737742563,0.3565563844740632,0.4909036151008859,0.753152583512283,0.7845004008226102,0.6008736111299371,0.712166095811973,1.131475000663334,0.8575113896257148,0.4540763310324807,0.5736714398246529,1.266516183676137,649.92673992674,804.6520146520147,784.5054945054945,760.3296703296703,646.3003663003664,-0.193420,0.073547,0.977783,0.171967,-1.674805,0.127106,444835.164835,129532454.212454,47668278.388278,112.592743,1,1,1,1,1,20.000000
2568-11-17 11:08:10.449,0.6039021775682448,0.5571369516382576,0.5256359521193131,0.5778664520426515,0.1491378100867269,0.3255425618117256,0.435309649487125,0.4504242253716561,0.4403636276378942,0.4779060615685988,0.4909036151008859,0.7280627106146639,0.7949566080338937,0.6154668342045787,0.712166095811973,1.040426227003426,0.842525838901384,0.4712040247410705,0.5736714398246529,1.328952904953826,1166.483516483516,828.8278388278388,801.4285714285714,857.032967032967,886.4468864468864,-0.195374,0.073486,0.974854,-0.029907,-1.719666,-0.127106,445641.025641,129609816.849817,47698095.238095,112.592743,1,1,1,1,1,20.000000
2568-11-17 11:08:10.547,,,,,,,,,,,,,,,,,,,,,,,,,,,,,,,,,,,,,,,,,,/muse/elements/blink
2568-11-17 11:08:10.947,,,,,,,,,,,,,,,,,,,,,,,,,,,,,,,,,,,,,,,,,,/muse/elements/blink
2568-11-17 11:08:11.442,0.7856794326906439,0.644527813988473,1.043772655675052,0.8249927834637973,1.052843674104686,0.4236405892561624,0.5751578899717661,0.5401336160861532,0.8999759478628121,0.6547054655659105,0.5718846363874047,0.5636145966374021,0.8334293079296158,0.5134893187545304,0.5732077720013419,1.049370226705485,0.9731588249060507,0.4860438011341819,0.5477415174173575,1.293053948864999,314.6886446886447,831.6483516483516,794.1758241758242,731.7216117216118,647.9120879120879,-0.192505,0.070496,0.977478,-0.000000,-1.181335,-0.456085,444835.164835,129401904.761905,47621538.461538,112.592743,1,1,1,1,1,20.000000
2568-11-17 11:08:11.837,,,,,,,,,,,,,,,,,,,,,,,,,,,,,,,,,,,,,,,,,,/muse/elements/blink
2568-11-17 11:08:12.449,0.97889715029007,0.8082211718919536,0.5203447358661858,0.8249927834637973,0.9976035880253961,0.5885808069176962,0.3134402240131957,0.5401336160861532,0.8688635750040852,0.8653000329855385,0.4573816482376593,0.5636145966374021,0.8764376697760105,0.5699493122955286,0.5434454688348574,1.049370226705485,0.9952736879673361,0.5765653383369462,0.578072382447999,1.293053948864999,654.7619047619048,815.5311355311355,780.4761904761905,728.901098901099,520.989010989011,-0.195251,0.071899,0.981384,0.493469,-1.420593,0.224304,444835.164835,129441391.941392,47615897.435897,112.592743,1,1,1,1,1,20.000000
2568-11-17 11:08:13.039,,,,,,,,,,,,,,,,,,,,,,,,,,,,,,,,,,,,,,,,,,/muse/elements/blink
2568-11-17 11:08:13.439,1.035946411358802,0.7795736002614444,0.422377462379027,0.8249927834637973,0.8670809257021007,0.4669043311159776,0.2050003585157352,0.5401336160861532,0.6171169144936817,0.8232417580330501,0.5295776259549008,0.5636145966374021,0.9394628294462485,0.6521036443753964,0.5237431681350765,1.049370226705485,0.9664428994147672,0.5566288315951099,0.6128041267936822,1.293053948864999,1286.959706959707,838.4981684981685,797.3992673992674,903.7728937728938,966.6300366300367,-0.192200,0.078003,0.981995,0.291595,-2.115936,-0.097198,444029.304029,129579194.139194,47654578.754579,112.592743,1,1,1,1,1,20.000000
2568-11-17 11:08:14.415,,,,,,,,,,,,,,,,,,,,,,,,,,,,,,,,,,,,,,,,,,/muse/elements/blink
2568-11-17 11:08:14.452,1.101954809003366,0.9902168489958746,0.3168701433288068,0.8249927834637973,0.8866593747473681,0.7293549615961408,0.5264461764852801,0.5401336160861532,0.5980033524817511,0.5464286109323726,0.4468792800970829,0.5636145966374021,0.9489087452984113,0.6805086621219814,0.5663690055347723,1.049370226705485,0.9514262194058076,0.4587775129258705,0.4766720366138887,1.293053948864999,344.5054945054945,818.3516483516484,781.2820512820513,738.5714285714286,622.5274725274726,-0.194519,0.074646,0.981140,0.194397,-1.323395,-0.246735,444029.304029,129373699.633700,47589304.029304,112.592743,1,1,1,1,1,20.000000
2568-11-17 11:08:15.445,1.101954809003366,0.8365464336825835,0.4638716773691434,0.8249927834637973,0.8866593747473681,0.4419071913060618,0.4939842919138733,0.5401336160861532,0.5980033524817511,0.3893126004425958,0.3806538275378724,0.5636145966374021,0.9489087452984113,0.7946841247793442,0.6416696141322157,1.049370226705485,0.9514262194058076,0.4411554735041985,0.3268275625837326,1.293053948864999,829.6336996336996,823.5897435897436,791.7582417582418,753.4798534798535,489.5604395604396,-0.196533,0.074768,0.976929,0.134583,-1.091614,-0.119629,444029.304029,129368864.468864,47577216.117216,112.592743,1,2,1,1,2,20.000000
2568-11-17 11:08:15.476,,,,,,,,,,,,,,,,,,,,,,,,,,,,,,,,,,,,,,,,,,/muse/elements/blink
2568-11-17 11:08:15.718,,,,,,,,,,,,,,,,,,,,,,,,,,,,,,,,,,,,,,,,,,/muse/elements/blink
2568-11-17 11:08:15.895,,,,,,,,,,,,,,,,,,,,,,,,,,,,,,,,,,,,,,,,,,/muse/elements/blink
2568-11-17 11:08:16.446,1.101954809003366,0.5741332373013514,0.5418137327846511,0.8249927834637973,0.8866593747473681,0.1200525933665703,0.1318592971430061,0.5401336160861532,0.5980033524817511,0.1889243272024699,0.2562099696728352,0.5636145966374021,0.9489087452984113,0.7538211246217856,0.5693800210744263,1.049370226705485,0.9514262194058076,0.4914769493786018,0.4624675279096435,1.293053948864999,1305.897435897436,844.1391941391942,780.4761904761905,903.3699633699634,950.1098901098901,-0.198242,0.071472,0.978577,0.014954,-1.981354,-0.179443,445641.025641,129479267.399267,47614285.714286,112.592743,1,2,1,1,2,20.000000
2568-11-17 11:08:16.955,,,,,,,,,,,,,,,,,,,,,,,,,,,,,,,,,,,,,,,,,,/muse/elements/blink
2568-11-17 11:08:17.110,,,,,,,,,,,,,,,,,,,,,,,,,,,,,,,,,,,,,,,,,,/muse/elements/blink
2568-11-17 11:08:17.451,1.101954809003366,0.5268141890363515,0.5578606772412722,0.8249927834637973,0.8866593747473681,0.08872402790602339,0.2706631985631238,0.5401336160861532,0.5980033524817511,0.3410806703015536,0.207906038691896,0.5636145966374021,0.9489087452984113,0.7378085524421929,0.4815415865968209,1.049370226705485,0.9514262194058076,0.5277487039274272,0.3938424923672548,1.293053948864999,740.1831501831502,821.978021978022,797.3992673992674,792.967032967033,582.2344322344322,-0.191040,0.075562,0.980347,-0.052338,-1.667328,-0.343933,444835.164835,129377728.937729,47607032.967033,112.592743,1,2,1,1,2,20.000000
2568-11-17 11:08:18.340,,,,,,,,,,,,,,,,,,,,,,,,,,,,,,,,,,,,,,,,,,/muse/elements/blink
2568-11-17 11:08:18.440,1.101954809003366,0.9042927752364153,0.6907309084521595,0.8249927834637973,0.8866593747473681,0.5136263023107916,0.3091387574673191,0.5401336160861532,0.5980033524817511,0.3256492458839711,0.3602204509258067,0.5636145966374021,0.9489087452984113,0.6545841032379683,0.5483274240442902,1.049370226705485,0.9514262194058076,0.3984141413990356,0.1169238771439422,1.293053948864999,1056.080586080586,823.5897435897436,803.040293040293,833.6630036630037,537.9120879120879,-0.193848,0.079041,0.979126,0.059814,-1.502838,0.089722,444029.304029,129327765.567766,47561904.761905,112.592743,1,2,1,1,2,20.000000
2568-11-17 11:08:19.439,1.101954809003366,0.9042927752364153,0.9761604541853374,0.8249927834637973,0.8866593747473681,0.5136263023107916,0.5559905159349703,0.5401336160861532,0.5980033524817511,0.3256492458839711,0.4723698259186957,0.5636145966374021,0.9489087452984113,0.6545841032379683,0.381838899790883,1.049370226705485,0.9514262194058076,0.3984141413990356,0.4194059073828009,1.293053948864999,1188.241758241758,817.1428571428571,792.5641025641025,845.3479853479854,803.040293040293,-0.194580,0.074768,0.978333,0.284119,-1.398163,-0.381317,444029.304029,129379340.659341,47594139.194139,112.592743,1,2,1,1,2,20.000000
2568-11-17 11:08:19.570,,,,,,,,,,,,,,,,,,,,,,,,,,,,,,,,,,,,,,,,,,/muse/elements/blink
2568-11-17 11:08:20.440,1.101954809003366,0.2615337620062867,0.7097883623802403,0.5215921077929612,0.8866593747473681,0.07034469042710034,0.3904015502078938,0.4561402420653176,0.5980033524817511,0.09792711671153234,0.2831580466646013,0.3210318558494556,0.9489087452984113,0.3492408914869521,0.4365365123371951,1.084823247583747,0.9514262194058076,0.610078832687116,0.3672042154564547,1.1844332457998,548.3882783882784,802.6373626373627,787.7289377289378,766.3736263736264,652.3443223443223,-0.201416,0.075867,0.978455,0.485992,-1.323395,0.231781,444029.304029,129343076.923077,47584468.864469,112.592743,1,1,1,1,1,20.000000
2568-11-17 11:08:20.887,,,,,,,,,,,,,,,,,,,,,,,,,,,,,,,,,,,,,,,,,,/muse/elements/blink
2568-11-17 11:08:21.439,1.101954809003366,0.604480778792482,0.4178272985836159,0.7664200272580707,0.8866593747473681,0.2952299622100484,0.2176419360381607,0.4154293988393446,0.5980033524817511,0.5194650897442006,0.507356425793604,0.4601964132290534,0.9489087452984113,0.6438522537119566,0.6374547597687613,1.060966273297036,0.9514262194058076,0.5157422177920277,0.5525620542158134,1.160230958463506,1202.344322344322,811.0989010989011,782.4908424908425,827.2161172161173,832.8571428571429,-0.201355,0.076111,0.975586,0.269165,-1.166382,0.343933,444835.164835,129202051.282051,47531282.051282,112.592743,1,1,1,1,1,20.000000
2568-11-17 11:08:22.013,,,,,,,,,,,,,,,,,,,,,,,,,,,,,,,,,,,,,,,,,,/muse/elements/blink
2568-11-17 11:08:22.439,0.859747392448017,0.8958500482133479,0.6866025303727917,0.571296389952504,0.5892835850366601,0.3764219288354371,0.3301864855113602,0.6225473009044794,0.7230921539806496,0.5350342406508652,0.5930648932094423,0.6719618025484716,0.8148742246596206,0.8323015331119646,0.7491550270444395,1.240033106946978,0.8560740264940185,0.4649752192857764,0.5503325136004013,1.191713548080189,1045.201465201465,819.1575091575091,788.9377289377289,832.4542124542124,747.032967032967,-0.203918,0.078247,0.982178,0.194397,-1.861725,0.104675,445641.025641,129256043.956044,47551428.571429,112.592743,1,1,1,1,1,20.000000
2568-11-17 11:08:23.310,,,,,,,,,,,,,,,,,,,,,,,,,,,,,,,,,,,,,,,,,,/muse/elements/blink
2568-11-17 11:08:23.439,0.752548874370829,0.666928400744543,0.2267228720018701,0.2356531689225848,0.4245279888115536,0.1268211891944708,0.1885778871679754,0.518698252011239,0.4263554911183907,0.199610219049335,0.5055394834535861,0.5553994328525439,0.9693630740609601,0.7220550048515051,0.6177971921684008,1.16321890760684,0.9865723831011816,0.553218556143358,0.772120552873822,1.113298152486295,391.2454212454213,811.9047619047619,810.6959706959707,744.6153846153846,587.0695970695971,-0.204895,0.076477,0.977661,-0.022430,-1.839294,-0.089722,444835.164835,129331794.871795,47565934.065934,112.592743,1,1,1,1,1,20.000000
2568-11-17 11:08:23.554,,,,,,,,,,,,,,,,,,,,,,,,,,,,,,,,,,,,,,,,,,/muse/elements/blink
2568-11-17 11:08:24.440,0.7148200347863735,0.4339999034433544,0.7286830257835941,0.4020978500284073,0.3447268272888389,0.1801108265214176,0.601605926595883,0.1275355888815837,0.6734935241700265,0.2529473925171934,0.3373082987469257,0.2372275951104122,0.8868628421377741,0.6689663674315718,0.6286495411825256,0.9595718993900034,0.9158770908956982,0.5137520214648412,0.7658869357089866,1.014463357258063,1261.575091575092,825.2014652014652,796.5934065934066,852.6007326007326,819.96336996337,-0.202637,0.074036,0.977661,0.186920,-1.712189,0.142059,444029.304029,129118241.758242,47424908.424908,112.592743,1,1,1,1,1,20.000000
2568-11-17 11:08:24.527,,,,,,,,,,,,,,,,,,,,,,,,,,,,,,,,,,,,,,,,,,/muse/elements/blink
2568-11-17 11:08:25.438,0.4973860329865322,0.4311398613059507,0.4828837141809142,0.5697663414643912,0.3074611800185187,0.2489007779607067,0.3510497049711817,0.5454228935097367,0.6595827837232343,0.3188594794988077,0.6669653436578261,0.6708678382575044,0.7849690569969473,0.6153518695614837,0.6184979190156319,0.8339098490016842,0.7800631258008865,0.4684479077089668,0.4816476348387232,1.085778743109025,698.6813186813187,819.1575091575091,783.2967032967033,789.3406593406594,713.5897435897436,-0.203735,0.074585,0.976624,0.284119,-1.914062,0.575714,444835.164835,129218974.358974,47413626.373626,112.592743,1,1,1,1,1,20.000000
2568-11-17 11:08:25.750,,,,,,,,,,,,,,,,,,,,,,,,,,,,,,,,,,,,,,,,,,/muse/elements/blink
2568-11-17 11:08:26.438,0.2983582514907093,0.1495599709064677,0.4884670807731176,0.4290044189903474,0.4256848087708071,0.4385059341075451,0.3834840149798367,0.3162803360612221,0.9890007931709714,0.4180072402817105,0.7380715649984794,0.7172608293676718,0.7899751009011566,0.6505571988081885,0.5739856246493985,1.11054059733691,0.7127407440117535,0.535519870698744,0.5382459504164547,1.169802282086022,354.5787545787546,824.7985347985348,800.6227106227107,725.2747252747253,582.2344322344322,-0.197571,0.077271,0.979614,0.254211,-1.540222,-0.067291,445641.025641,129024761.904762,47364468.864469,112.592743,1,1,1,1,1,20.000000
2568-11-17 11:08:26.967,,,,,,,,,,,,,,,,,,,,,,,,,,,,,,,,,,,,,,,,,,/muse/elements/blink
2568-11-17 11:08:27.191,,,,,,,,,,,,,,,,,,,,,,,,,,,,,,,,,,,,,,,,,,/muse/elements/blink
2568-11-17 11:08:27.450,0.6230225551084351,0.3644405696973048,0.4582172256879423,0.6348093322747093,0.6642110717682106,0.4090446641372123,0.2005494189716865,0.5660177495674101,1.010232579244222,0.3796785139816043,0.3399886996242675,0.6436473132862041,0.8495567011645547,0.6448847455521516,0.4178981702083952,0.9273086127684206,0.6889280395809021,0.5411478276171992,0.6431084388473268,1.047833735099491,1050.43956043956,832.8571428571429,801.8315018315019,853.8095238095239,622.5274725274726,-0.198303,0.079895,0.979919,0.284119,-1.016846,0.426178,444835.164835,129032820.512821,47304029.304029,112.592743,1,1,1,1,1,20.000000
2568-11-17 11:08:28.278,,,,,,,,,,,,,,,,,,,,,,,,,,,,,,,,,,,,,,,,,,/muse/elements/blink
2568-11-17 11:08:28.439,0.5740352509548684,0.469035273728054,0.09885144201923132,0.6249415899178695,0.5945140813066213,0.1194348241428909,0.04953523088987775,0.507328616684312,0.6962415571276908,0.3952905131571387,0.3241769706818418,0.4110788260387747,0.8384592218428282,0.5865684042098056,0.4427626360599352,1.145301246352282,0.8143522981357169,0.6068412339878588,0.7043779797850067,1.03130247967666,386.007326007326,815.5311355311355,794.1758241758242,725.2747252747253,635.0183150183151,-0.198120,0.078064,0.971741,-0.119629,-1.742096,0.052338,444835.164835,129127106.227106,47358827.838828,112.592743,1,1,1,1,1,20.000000
2568-11-17 11:08:29.406,,,,,,,,,,,,,,,,,,,,,,,,,,,,,,,,,,,,,,,,,,/muse/elements/blink
2568-11-17 11:08:29.441,0.5029295490623696,0.3672701426081085,-0.1907773734037089,0.8319207905643137,0.4907295032295471,0.07559854026875171,0.0680976281446212,0.07979789743588668,0.5236986818764372,0.5302940282702701,0.2543154259544674,0.3505045565558111,0.8322761709731418,0.5652944645433572,0.4627740530791407,1.195488762283037,0.7676935879402902,0.5266366063356122,0.7318570111531566,1.048040047283344,585.8608058608058,818.3516483516484,794.981684981685,772.8205128205128,552.014652014652,-0.199890,0.074890,0.978699,-0.089722,-1.644897,-0.157013,444835.164835,128853919.413919,47274212.454212,112.592743,1,1,1,1,1,20.000000
2568-11-17 11:08:30.452,0.5029295490623696,0.1043348079363101,0.1640901394932301,0.6173558097640451,0.4907295032295471,0.4709439219872991,-0.03731134337266947,0.3413222543426214,0.5236986818764372,0.6579366410454403,0.5346618745524944,0.4107000403689588,0.8322761709731418,0.6593428962357544,0.6151338368664196,1.215526460665652,0.7676935879402902,0.5276519797603785,0.616228144546807,1.278983535928453,727.2893772893773,817.948717948718,784.5054945054945,780.4761904761905,794.981684981685,-0.201538,0.073792,0.978149,0.157013,-1.390686,0.254211,443223.443223,128940146.520147,47285494.505495,112.592743,1,1,1,1,1,20.000000
2568-11-17 11:08:30.704,,,,,,,,,,,,,,,,,,,,,,,,,,,,,,,,,,,,,,,,,,/muse/elements/blink
2568-11-17 11:08:31.447,1.033421014743809,0.09939111795170825,0.3121171449428373,0.4199980363971224,1.145569716575921,0.4431342937505431,5.41069244271016e-05,0.5106708028867307,0.8809195631844577,0.4157010552624271,0.48519994348123,0.5036524593191838,0.8298643135623369,0.7704862826841783,0.510703079444179,1.107380635508755,0.850163557942727,0.4243221678606052,0.7462356836778509,1.232091753249772,341.2820512820513,827.6190476190476,807.8754578754579,737.7655677655678,713.992673992674,-0.209534,0.071655,0.975647,-0.022430,-1.368256,-0.142059,444029.304029,129161758.241758,47360439.560440,112.592743,1,1,1,1,1,20.000000
2568-11-17 11:08:31.939,,,,,,,,,,,,,,,,,,,,,,,,,,,,,,,,,,,,,,,,,,/muse/elements/blink
2568-11-17 11:08:32.446,0.7568093119851846,0.528960153697382,0.1919342471565129,0.05608661924887604,0.46818543071386,0.3866837364941286,0.09835381439195029,0.2918323085661326,0.7016145384060606,0.4501507269748623,0.4731968144268597,0.5277851526505436,0.8108098637225537,0.6716848823294091,0.5685042276681587,1.145807886083082,0.6810632143167398,0.4741799240457553,0.8835308435800451,0.9112242381656285,839.3040293040293,803.4432234432235,795.7875457875458,799.0109890109891,651.941391941392,-0.204285,0.076660,0.978760,0.014954,-1.054230,0.067291,444029.304029,128908717.948718,47284688.644689,112.592743,1,1,1,1,1,20.000000
2568-11-17 11:08:33.156,,,,,,,,,,,,,,,,,,,,,,,,,,,,,,,,,,,,,,,,,,/muse/elements/blink
2568-11-17 11:08:33.439,0.7909093314147915,0.7364313719733269,0.02355205596930802,0.01470801483140604,0.4100113062857216,0.6243366530269375,-0.2575822188354618,0.3689999387239744,0.637116568788562,0.6907803115339014,0.03144056430806813,0.6210984081037115,0.7694016018001248,0.7849469612011187,0.5319372016178142,1.222683528518187,0.6511382387853517,0.4880446574526999,0.7367522284192242,0.9797432967712294,1248.278388278388,808.6813186813187,784.1025641025641,874.3589743589744,928.3516483516484,-0.203491,0.077271,0.972534,0.052338,-1.181335,0.142059,444835.164835,128917582.417582,47297582.417582,112.592743,1,1,1,1,1,20.000000
2568-11-17 11:08:34.439,0.8394272199610946,0.5455599145347623,0.1705755681833933,0.07036068145611479,0.3714159286973978,0.5209589025301441,-0.0337252365491371,0.4626248186349305,0.6247679992504165,0.7192764176502624,0.1145035932120491,0.5369205037119889,0.726388752673485,0.6973835425209977,0.5597734218482241,1.130076939847632,0.6476332075365513,0.3719112696909215,0.7265757118199808,1.037697903871496,418.2417582417582,801.4285714285714,798.6080586080586,738.5714285714286,598.3516483516484,-0.206360,0.076965,0.982300,0.441132,-1.757050,0.336456,444835.164835,129003003.663004,47348351.648352,112.592743,1,1,1,1,1,20.000000
2568-11-17 11:08:34.513,,,,,,,,,,,,,,,,,,,,,,,,,,,,,,,,,,,,,,,,,,/muse/elements/blink
2568-11-17 11:08:35.438,0.7743971767450586,0.6256072452217617,0.4347355218882464,0.1381205205097105,0.7445771457848994,0.5308733461574761,0.06487500647510168,0.2992683345288621,0.9317862032892873,0.9968995160467558,0.2239049494365992,0.5873967933136672,1.023868418878283,0.6562475921351968,0.5622170721757791,1.009884985365993,0.8488561178260664,0.275466463079584,0.6721652204047418,0.9147059286735636,1041.978021978022,798.2051282051282,791.3553113553114,835.2747252747253,661.6117216117216,-0.207458,0.072205,0.981018,0.127106,-1.263580,0.007477,443223.443223,128767692.307692,47240366.300366,112.592743,1,1,1,1,1,20.000000
2568-11-17 11:08:35.730,,,,,,,,,,,,,,,,,,,,,,,,,,,,,,,,,,,,,,,,,,/muse/elements/blink
2568-11-17 11:08:35.928,,,,,,,,,,,,,,,,,,,,,,,,,,,,,,,,,,,,,,,,,,/muse/elements/blink
2568-11-17 11:08:36.453,0.5236620167241411,0.760148654478747,0.2678376129208068,0.3056165011591391,0.5381861538140421,0.6023527731020972,-0.1488556330339558,0.2901815752038959,0.8963399908770167,0.9584990337093166,0.3070910467869352,0.4791750929242184,0.803290525087633,0.6954555486686389,0.4863384367889251,1.036249251318549,0.7866842557877995,0.3230792284793882,0.6826232135069648,0.8611837846383134,391.6483516483516,801.025641025641,796.1904761904763,753.4798534798535,1128.205128205128,-0.210266,0.078491,0.971191,0.261688,-1.637421,0.216827,442417.582418,128824102.564103,47281465.201465,112.592743,1,1,1,1,1,20.000000
2568-11-17 11:08:36.948,,,,,,,,,,,,,,,,,,,,,,,,,,,,,,,,,,,,,,,,,,/muse/elements/blink
2568-11-17 11:08:37.235,,,,,,,,,,,,,,,,,,,,,,,,,,,,,,,,,,,,,,,,,,/muse/elements/blink
2568-11-17 11:08:37.443,0.5626687557101773,0.6349563090279019,0.4845247740814747,0.7784835468509996,0.6349848502332375,0.7854478176267514,-0.2060851148547978,0.6028302538593803,0.8404658745043594,0.8087762161940121,0.2940774475112721,0.3053304901930831,0.7948408257038465,0.7254297643529187,0.5129685126038596,1.262834122602796,0.8181043408947902,0.4444858531274903,0.6570637031086285,1.182864450435767,568.5347985347986,812.3076923076924,793.3699633699634,754.2857142857143,731.7216117216118,-0.257141,0.088989,0.959717,1.121521,1.502838,4.276733,445641.025641,128949010.989011,47347545.787546,112.592743,1,1,1,1,1,20.000000
2568-11-17 11:08:38.039,,,,,,,,,,,,,,,,,,,,,,,,,,,,,,,,,,,,,,,,,,/muse/elements/blink
2568-11-17 11:08:38.353,,,,,,,,,,,,,,,,,,,,,,,,,,,,,,,,,,,,,,,,,,/muse/elements/blink
2568-11-17 11:08:38.439,0.5626687557101773,0.5715292634904247,0.8915389065320641,0.7784835468509996,0.6349848502332375,0.8088748093258995,0.3255037549824279,0.6028302538593803,0.8404658745043594,0.8142294202475113,0.5570057887414864,0.3053304901930831,0.7948408257038465,0.6854984753861075,0.463391006743701,1.262834122602796,0.8181043408947902,0.4006237575712743,0.3930840787313799,1.182864450435767,1191.465201465202,807.4725274725275,801.025641025641,816.7399267399268,757.9120879120879,-0.276855,0.147644,0.951965,-1.009369,0.411224,2.145844,450476.190476,128979633.699634,47338681.318681,112.592743,1,1,1,1,1,20.000000
2568-11-17 11:08:39.438,0.5626687557101773,0.7967071985051729,0.7740790262557578,0.7784835468509996,0.6349848502332375,0.2493675715014417,0.4460624076176971,0.6028302538593803,0.8404658745043594,0.7273778293047661,0.5275831854414884,0.3053304901930831,0.7948408257038465,0.7244093415428243,0.4908154542202203,1.262834122602796,0.8181043408947902,0.2756703522239709,0.4620890179624606,1.182864450435767,267.1428571428572,799.4139194139194,794.1758241758242,716.007326007326,637.032967032967,-0.278076,0.138245,0.950867,-0.568237,-2.504730,-3.342133,451282.051282,129109377.289377,47446666.666667,112.592743,1,1,1,1,1,20.000000
2568-11-17 11:08:39.577,,,,,,,,,,,,,,,,,,,,,,,,,,,,,,,,,,,,,,,,,,/muse/elements/blink
2568-11-17 11:08:40.439,0.9467151412609989,0.9905689955174046,0.7740790262557578,0.7069135083905865,0.873693520863094,0.5595530904511903,0.4460624076176971,0.6585967056087526,0.8863146358131078,0.8553280926555969,0.5275831854414884,1.10457237019657,0.6712790437316281,0.6262777042067205,0.4908154542202203,0.9474132089254066,0.6554126906608729,0.3429097125563518,0.4620890179624606,0.9919682744962721,775.2380952380953,823.1868131868132,791.3553113553114,770.4029304029305,624.1391941391942,-0.256348,0.140869,0.961304,-0.291595,-1.697235,1.323395,451282.051282,129141611.721612,47461172.161172,112.592743,1,1,1,1,1,20.000000
2568-11-17 11:08:40.788,,,,,,,,,,,,,,,,,,,,,,,,,,,,,,,,,,,,,,,,,,/muse/elements/blink
2568-11-17 11:08:41.439,0.998521661666934,1.050305904700119,0.4906280584873831,0.7250353803699857,0.7267479660745171,0.9047053198187868,0.3526061674045738,0.7778852334857024,0.8917024245068924,0.8768963280486641,0.4278279599765756,1.147066252464592,0.6621037527727912,0.4739072754201513,0.7369379463384408,0.8907673794378498,0.6738223775534705,0.4596117100736243,0.4100221253000956,0.7846451590117014,1326.849816849817,821.978021978022,802.6373626373627,875.9706959706959,541.5384615384615,-0.250549,0.133118,0.959045,0.112152,-2.714081,-0.231781,449670.329670,128880512.820513,47337069.597070,112.592743,1,1,1,1,1,20.000000
2568-11-17 11:08:42.008,,,,,,,,,,,,,,,,,,,,,,,,,,,,,,,,,,,,,,,,,,/muse/elements/blink
2568-11-17 11:08:42.298,,,,,,,,,,,,,,,,,,,,,,,,,,,,,,,,,,,,,,,,,,/muse/elements/blink
2568-11-17 11:08:42.443,1.05535893214019,1.081917696586987,0.6122700215643569,0.8587257225115165,0.438797888978029,0.883919746079981,0.3780385363590562,0.7038099265673403,0.7465876382470739,0.8978088683739722,0.4329626495057973,1.143493651442978,0.6375433010970732,0.7348077225089175,0.8897175672613196,0.9246612786143669,0.6976578999135592,0.4817912277582949,0.6285270931398195,0.7233776134693268,353.7728937728938,778.8644688644689,805.4578754578755,768.3882783882784,1244.652014652015,-0.246948,0.137939,0.963196,0.216827,-1.562653,0.044861,450476.190476,128979633.699634,47355604.395604,112.592743,1,1,1,1,1,20.000000
2568-11-17 11:08:43.228,,,,,,,,,,,,,,,,,,,,,,,,,,,,,,,,,,,,,,,,,,/muse/elements/blink
2568-11-17 11:08:43.444,1.05535893214019,0.9769462153364447,0.7063976973897321,0.8587257225115165,0.438797888978029,0.8780984241186862,0.5490623575611495,0.7038099265673403,0.7465876382470739,0.7611740578437735,0.5635020327459977,1.143493651442978,0.6375433010970732,0.6356563380929038,0.7754997624763689,0.9246612786143669,0.6976578999135592,0.4526811173882117,0.5180897991037388,0.7233776134693268,979.92673992674,809.8901098901099,795.3846153846154,736.5567765567765,706.3369963369963,-0.249634,0.136108,0.960693,0.366364,-0.971985,0.171967,450476.190476,129092454.212454,47428131.868132,112.592743,1,1,1,1,1,20.000000
2568-11-17 11:08:43.663,,,,,,,,,,,,,,,,,,,,,,,,,,,,,,,,,,,,,,,,,,/muse/elements/blink
2568-11-17 11:08:44.440,,,,,,,,,,,,,,,,,,,,,,,,,,,,,,,,,,,,,,,,,,/muse/elements/blink
2568-11-17 11:08:44.455,1.05535893214019,0.5980190687854219,0.7323660981977246,0.8587257225115165,0.438797888978029,0.9123349396547089,0.3715951630612322,0.7038099265673403,0.7465876382470739,0.6747042574826726,0.4831542596984713,1.143493651442978,0.6375433010970732,0.7426315671658456,0.5958378709395279,0.9246612786143669,0.6976578999135592,0.4252910969044664,0.2390180866068003,0.7233776134693268,358.6080586080586,846.1538461538462,787.7289377289378,751.4652014652015,531.0622710622711,-0.252197,0.140808,0.959473,0.433655,-1.674805,-0.007477,449670.329670,129144029.304029,47485347.985348,112.592743,1,2,1,1,2,20.000000
2568-11-17 11:08:45.445,0.4675051619030782,0.8525246709603154,0.5182525477305231,0.8587257225115165,0.2501491299230851,0.8579436351608987,0.3135231648802873,0.7038099265673403,0.3194306756855915,0.7968929311904855,0.3473332875383861,1.143493651442978,0.8705209291591983,0.8252036131850662,0.6748143420581521,0.9246612786143669,0.6562782838476032,0.3425910344557556,0.3723732896540851,0.7233776134693268,601.978021978022,802.6373626373627,800.2197802197802,792.5641025641025,627.3626373626374,-0.246887,0.144226,0.963562,0.209351,-1.495361,0.672913,451282.051282,129010256.410256,47436190.476190,112.592743,1,1,1,1,1,20.000000
2568-11-17 11:08:46.440,0.4396393177117621,0.9938209074236146,0.3208715484770682,0.2714485518107262,0.3958903617555957,0.9977681262527653,0.07116763821511736,0.2606333367328829,0.5945706327010775,0.5823125182768021,0.3030593213945401,0.559703718480413,0.8388721130390171,0.6975471674170082,0.6160330135304724,1.045986765330931,0.7177062737570589,0.4159224602359426,0.4469842910819115,1.053963642421542,1196.300366300366,790.952380952381,817.1428571428571,780.4761904761905,671.6849816849817,-0.245544,0.143921,0.960388,0.112152,-1.009369,0.657959,451282.051282,129095677.655678,47482930.402930,112.592743,1,1,1,1,1,20.000000
2568-11-17 11:08:46.981,,,,,,,,,,,,,,,,,,,,,,,,,,,,,,,,,,,,,,,,,,/muse/elements/blink
2568-11-17 11:08:47.439,0.4401438191679413,1.015992143907286,0.6095346700737015,0.2750610864737428,0.5075058469124007,0.7301079383246839,0.5327343834961925,0.3525348664260711,0.5652249063905482,0.7473208286978644,0.5024633679261434,0.459865383254025,0.8390106333471515,0.7351670294978762,0.8083133882018888,1.020314524519014,0.7183524680920637,0.4314703834584901,0.367598908688856,1.01665478475354,969.047619047619,819.96336996337,797.3992673992674,801.4285714285714,569.7435897435897,-0.239624,0.140442,0.952820,-0.134583,-1.779480,-0.022430,451282.051282,129239926.739927,47544175.824176,112.592743,1,1,1,1,1,20.000000
2568-11-17 11:08:48.198,,,,,,,,,,,,,,,,,,,,,,,,,,,,,,,,,,,,,,,,,,/muse/elements/blink
2568-11-17 11:08:48.449,0.3478151591586257,0.7449561618541514,0.554366499384937,0.2590074173874923,0.3943523430850193,0.5142199128334405,0.4778141386513921,0.3734179817801749,0.5795020419106559,0.8220437259207181,0.446776689545388,0.4291383695339968,0.9799100109600363,0.7611269897693156,0.6674783608846441,1.044319907767901,0.8537173156734809,0.4251832112987906,0.2457816128539259,1.004662173924624,946.0805860805862,815.1282051282052,800.2197802197802,809.0842490842491,629.7802197802198,-0.240967,0.146118,0.959839,0.426178,-1.712189,0.971985,451282.051282,129013479.853480,47475677.655678,112.592743,1,1,1,1,1,20.000000
2568-11-17 11:08:49.414,,,,,,,,,,,,,,,,,,,,,,,,,,,,,,,,,,,,,,,,,,/muse/elements/blink
2568-11-17 11:08:49.438,0.475490086768981,0.7523399559874835,0.4666059710029062,0.2590074173874923,0.3780142227791301,0.5071883520770974,0.3484083214904201,0.3734179817801749,0.6106958684406087,0.9223120603492477,0.3462563069594037,0.4291383695339968,0.9514670697070164,0.7200396252987695,0.6560187725850531,1.044319907767901,0.8968751577951599,0.4556281050831662,0.242064026671093,1.004662173924624,1273.260073260073,832.8571428571429,778.4615384615385,868.7179487179487,745.8241758241759,-0.239685,0.151611,0.959717,-0.089722,-1.278534,0.545807,451282.051282,129032014.652015,47470036.630037,112.592743,1,1,1,1,1,20.000000
2568-11-17 11:08:50.451,1.423514797675894,0.7297088486149494,0.919124848320877,0.2590074173874923,1.010851457471258,0.5955414150267683,0.4961191907759779,0.3734179817801749,1.000939755783514,0.8236707333579423,0.2441370342650047,0.4291383695339968,0.8486650786921945,0.5562925559052662,0.7072092557883682,1.044319907767901,0.9543762199023893,0.5328831887196134,0.3641395890596506,1.004662173924624,600.7692307692308,792.5641025641025,799.4139194139194,782.0879120879121,553.6263736263736,-0.228455,0.151794,0.961426,0.022430,-1.943970,-0.127106,451282.051282,128925641.025641,47404761.904762,112.592743,1,1,1,1,1,20.000000
2568-11-17 11:08:50.722,,,,,,,,,,,,,,,,,,,,,,,,,,,,,,,,,,,,,,,,,,/muse/elements/blink
2568-11-17 11:08:51.447,1.091628880035745,0.3526632514822733,0.2099290813050911,0.8677457016707277,0.5251949141415372,0.6257352263497397,-0.2744645366691211,0.2740845911875964,0.7754400811867959,0.6124312912872859,0.3777207776178608,0.856090872176251,0.7955590833626033,0.7868085936437688,0.5896076034537153,0.8484555328066791,0.7672169339039088,0.5012551445654463,0.443839961219221,1.105724572257726,1200.32967032967,807.0695970695971,779.6703296703297,865.4945054945056,706.3369963369963,-0.229309,0.149414,0.963562,-0.104675,-1.472931,-0.134583,450476.190476,128767692.307692,47346739.926740,112.592743,1,1,1,1,1,20.000000
2568-11-17 11:08:52.053,,,,,,,,,,,,,,,,,,,,,,,,,,,,,,,,,,,,,,,,,,/muse/elements/blink
2568-11-17 11:08:52.438,0.9810474689655355,0.9958376287205319,0.6356392599491616,0.5297129717898256,0.4548607081907283,0.9539076996266213,0.1741787244949564,0.2169437438900952,0.6778197253586781,0.8421288268522417,0.4198679233403678,0.3703679182172871,0.8761563263970696,0.7322914505623319,0.7356986509430113,0.8640850584887968,0.8557399870534095,0.4579205996174038,0.4227799537917837,1.1613713552472,1067.362637362637,809.8901098901099,796.1904761904763,803.040293040293,738.1684981684982,-0.221008,0.147217,0.968628,-0.164490,-1.614990,0.112152,450476.190476,128986886.446886,47383809.523810,112.592743,1,1,1,1,1,20.000000
2568-11-17 11:08:53.159,,,,,,,,,,,,,,,,,,,,,,,,,,,,,,,,,,,,,,,,,,/muse/elements/blink
2568-11-17 11:08:53.440,0.9803163331740112,1.266109378401448,0.9940029396155294,0.5297129717898256,0.4832634369943809,1.056831447210623,0.6333424905552892,0.2169437438900952,0.6764912112985253,0.7537514361789485,0.5739251141074168,0.3703679182172871,0.9010724573836464,0.6432291919011766,0.7240074037419094,0.8640850584887968,0.8798538946918604,0.4788396213817014,0.4253642216457331,1.1613713552472,361.4285714285714,833.6630036630037,797.3992673992674,718.4249084249085,533.0769230769231,-0.225891,0.140686,0.967834,-0.029907,-0.852356,-0.037384,450476.190476,128736263.736264,47298388.278388,112.592743,1,1,1,1,1,20.000000
2568-11-17 11:08:54.439,0.9803163331740112,1.266109378401448,0.8918025232983088,0.5297129717898256,0.4832634369943809,1.056831447210623,0.4586480223824723,0.2169437438900952,0.6764912112985253,0.7537514361789485,0.3442952261488827,0.3703679182172871,0.9010724573836464,0.6432291919011766,0.6648897688948792,0.8640850584887968,0.8798538946918604,0.4788396213817014,0.3596864767479011,1.1613713552472,1297.435897435897,803.040293040293,809.8901098901099,850.989010989011,711.978021978022,-0.231689,0.145691,0.961914,0.343933,-0.508423,0.583191,449670.329670,128704029.304029,47263736.263736,112.592743,1,2,1,1,2,20.000000
2568-11-17 11:08:54.709,,,,,,,,,,,,,,,,,,,,,,,,,,,,,,,,,,,,,,,,,,/muse/elements/blink
2568-11-17 11:08:55.439,0.9803163331740112,1.266109378401448,0.9447105458533637,0.5297129717898256,0.4832634369943809,1.056831447210623,0.5312596287179486,0.2169437438900952,0.6764912112985253,0.7537514361789485,0.1630890708412747,0.3703679182172871,0.9010724573836464,0.6432291919011766,0.5537606744789845,0.8640850584887968,0.8798538946918604,0.4788396213817014,0.2994980983073957,1.1613713552472,807.0695970695971,811.9047619047619,787.3260073260074,796.996336996337,695.0549450549451,-0.222473,0.137329,0.968323,-0.777588,-2.362671,-0.209351,449670.329670,128659706.959707,47193626.373626,112.592743,1,2,1,1,2,20.000000
2568-11-17 11:08:55.595,,,,,,,,,,,,,,,,,,,,,,,,,,,,,,,,,,,,,,,,,,/muse/elements/blink
2568-11-17 11:08:55.835,,,,,,,,,,,,,,,,,,,,,,,,,,,,,,,,,,,,,,,,,,/muse/elements/blink
2568-11-17 11:08:56.442,0.9803163331740112,0.5356687175004583,0.3063694522981089,0.5297129717898256,0.4832634369943809,0.8032677148193739,0.4786014031735366,0.2169437438900952,0.6764912112985253,0.3703576780336085,0.1997218987484538,0.3703679182172871,0.9010724573836464,0.8591900088750722,0.7015206592392504,0.8640850584887968,0.8798538946918604,0.6317802198640974,0.6167175314055254,1.1613713552472,309.4505494505495,805.8608058608058,783.2967032967033,720.8424908424909,593.5164835164835,-0.230774,0.143738,0.962524,0.029907,-0.635529,0.583191,450476.190476,128598461.538462,47151721.611722,112.592743,1,2,1,1,2,20.000000
2568-11-17 11:08:56.934,,,,,,,,,,,,,,,,,,,,,,,,,,,,,,,,,,,,,,,,,,/muse/elements/blink
2568-11-17 11:08:57.150,,,,,,,,,,,,,,,,,,,,,,,,,,,,,,,,,,,,,,,,,,/muse/elements/blink
2568-11-17 11:08:57.438,0.9803163331740112,0.6633304996048731,0.4055257180272348,0.5297129717898256,0.4832634369943809,0.5279216504214103,0.4076767022806536,0.2169437438900952,0.6764912112985253,0.5514037028051308,0.1331441326412379,0.3703679182172871,0.9010724573836464,0.8218248092702501,0.6781697008796566,0.8640850584887968,0.8798538946918604,0.6772151390058364,0.6645041839224701,1.1613713552472,1209.194139194139,789.3406593406594,795.7875457875458,848.5714285714286,915.8608058608058,-0.234802,0.141235,0.962952,0.022430,-2.100983,-0.104675,450476.190476,128738681.318681,47181538.461538,112.592743,1,2,1,1,2,20.000000
2568-11-17 11:08:58.269,,,,,,,,,,,,,,,,,,,,,,,,,,,,,,,,,,,,,,,,,,/muse/elements/blink
2568-11-17 11:08:58.439,0.9803163331740112,0.6577413131333667,0.6570131946361318,0.5297129717898256,0.4832634369943809,0.07187421928227393,0.2816907307242584,0.2169437438900952,0.6764912112985253,0.4007327257658431,0.4564910219823652,0.3703679182172871,0.9010724573836464,0.9000332276245255,0.8139603158298261,0.8640850584887968,0.8798538946918604,0.4656113701587654,0.6090482589033516,1.1613713552472,562.0879120879121,809.4871794871796,792.967032967033,797.3992673992674,611.2454212454213,-0.241150,0.140625,0.960449,0.186920,-1.345825,-0.179443,450476.190476,128422783.882784,47053406.593407,112.592743,1,2,1,1,2,20.000000
2568-11-17 11:08:59.354,,,,,,,,,,,,,,,,,,,,,,,,,,,,,,,,,,,,,,,,,,/muse/elements/blink
2568-11-17 11:08:59.439,0.9803163331740112,0.6082594080251671,0.6953629634791744,0.522802274557656,0.4832634369943809,0.1351007120432423,0.3432737901229142,0.3854021768013398,0.6764912112985253,0.7284512542525251,0.5260414414755133,0.63576669920578,0.9010724573836464,0.9121967921886477,0.7824991129154817,1.173079835379541,0.8798538946918604,0.5136065137760389,0.6088474972627644,1.294911966778935,407.7655677655678,783.2967032967033,770,722.4542124542124,491.1721611721612,-0.247070,0.135132,0.963867,-0.201874,-1.495361,-0.127106,449670.329670,128513846.153846,47078388.278388,112.592743,1,1,1,1,1,20.000000
2568-11-17 11:09:00.438,0.9803163331740112,0.5878937480778238,0.1578667823492318,0.4675931978660621,0.4832634369943809,0.2944160863846337,0.2581153485202,0.4312881242520162,0.6764912112985253,0.7761986189758534,0.3953680639577106,0.88703339001264,0.9010724573836464,0.9219706086894842,0.7827846203112659,1.151780461283851,0.8798538946918604,0.6146482934174305,0.5191879673410079,1.151568715611628,1028.681318681319,806.2637362637363,797.3992673992674,842.9304029304029,702.3076923076924,-0.242249,0.136841,0.962769,-0.261688,-1.323395,-0.269165,449670.329670,128414725.274725,47039706.959707,112.592743,1,1,1,1,1,20.000000
2568-11-17 11:09:00.801,,,,,,,,,,,,,,,,,,,,,,,,,,,,,,,,,,,,,,,,,,/muse/elements/blink
2568-11-17 11:09:01.438,0.5383288435993748,0.746693952864983,0.3239898413215843,0.5880042118592228,-0.080201567410129,0.2505392857319331,-0.05561648735935914,0.2145408295827072,0.2438471856231648,0.8012588909927439,0.4636663437056953,0.8251593677511586,0.7194116692499481,1.021606802546391,0.7109062535445781,1.043822072808085,0.9130941943772188,0.5106523626185413,0.4678449467249606,0.9830623729784264,401.7216117216117,817.1428571428571,778.8644688644689,720.0366300366301,597.5457875457876,-0.244629,0.139099,0.960327,0.299072,-1.114044,0.590668,451282.051282,128612967.032967,47114652.014652,112.592743,1,1,1,1,1,20.000000
2568-11-17 11:09:02.026,,,,,,,,,,,,,,,,,,,,,,,,,,,,,,,,,,,,,,,,,,/muse/elements/blink
2568-11-17 11:09:02.439,0.5656217956800632,0.8654569710752184,0.5606320631077554,1.116101847786708,0.2457287361044304,0.4866283926781343,0.08832949719607734,0.9171887087695707,0.552634351999194,0.6563811479253461,0.4246393744667982,0.8177937054938489,0.7707106451477538,1.075405516124849,0.7821321140062375,1.240309958373343,0.9883863253664013,0.3620009450586677,0.3586780134999465,0.9090672534539044,534.2857142857143,828.021978021978,799.0109890109891,767.1794871794872,668.0586080586081,-0.239441,0.145691,0.960022,-0.127106,-2.108459,-0.261688,451282.051282,128477582.417582,47147692.307692,112.592743,1,1,1,1,1,20.000000
2568-11-17 11:09:03.151,,,,,,,,,,,,,,,,,,,,,,,,,,,,,,,,,,,,,,,,,,/muse/elements/blink
2568-11-17 11:09:03.333,,,,,,,,,,,,,,,,,,,,,,,,,,,,,,,,,,,,,,,,,,/muse/elements/blink
2568-11-17 11:09:03.438,0.5656217956800632,1.035958209285659,0.6829101363231139,0.7576620694837597,0.2457287361044304,0.7842534752455368,0.6458959624479508,0.6195887894072253,0.552634351999194,0.8907222929189683,0.2345898870034067,1.097931722437656,0.7707106451477538,0.9131714446062322,0.7336611126884339,1.207708271718857,0.9883863253664013,0.4352415964252501,0.4167292070375523,1.064105875794324,756.3003663003664,784.5054945054945,799.4139194139194,741.7948717948718,1047.619047619048,-0.246643,0.148621,0.959778,-0.134583,-1.286011,0.246735,452087.912088,128470329.670330,47102564.102564,112.592743,1,1,1,1,1,20.000000
2568-11-17 11:09:04.445,0.5656217956800632,1.193968736489157,0.5554481455772745,0.262555881287406,0.2457287361044304,0.6577740455968366,0.4770118478743962,0.3810026512887721,0.552634351999194,0.9742813522877272,0.5224644909142497,1.095539570878391,0.7707106451477538,0.7620288463713831,0.6895017627644469,1.174723748615481,0.9883863253664013,0.3632671740596942,0.6499737395027498,1.142862639515483,324.7619047619048,801.4285714285714,792.5641025641025,743.4065934065934,638.2417582417582,-0.249878,0.140747,0.959839,0.112152,-1.517792,-0.157013,448864.468864,128542051.282051,47117069.597070,112.592743,1,1,1,1,1,20.000000
2568-11-17 11:09:04.455,,,,,,,,,,,,,,,,,,,,,,,,,,,,,,,,,,,,,,,,,,/muse/elements/blink
2568-11-17 11:09:04.676,,,,,,,,,,,,,,,,,,,,,,,,,,,,,,,,,,,,,,,,,,/muse/elements/blink
2568-11-17 11:09:05.448,0.5656217956800632,1.121784563856231,0.45041338281484,0.2337348885615651,0.2457287361044304,0.5179515025766567,0.2038214836723387,0.4445188286649498,0.552634351999194,0.8622131432632701,0.4907622619101472,0.5914779028158645,0.7707106451477538,0.7280994775472974,0.4582848813027163,1.161415682338744,0.9883863253664013,0.4680492553096219,0.7924107916422872,1.137479715270134,742.6007326007326,807.0695970695971,792.1611721611722,787.7289377289378,591.5018315018315,-0.236511,0.146912,0.960815,-0.089722,-1.323395,0.052338,448864.468864,128375238.095238,47021172.161172,112.592743,1,1,1,1,1,20.000000
2568-11-17 11:09:05.877,,,,,,,,,,,,,,,,,,,,,,,,,,,,,,,,,,,,,,,,,,/muse/elements/blink
2568-11-17 11:09:06.444,0.5656217956800632,0.9614807375835998,0.602508080398899,0.6780588062623245,0.2457287361044304,0.3254041651984465,-0.2170455968539095,0.5478832383332471,0.552634351999194,0.6494689695577328,0.448801222688833,0.8392276729036604,0.7707106451477538,0.8442639313489094,0.5194230644119129,1.130932738268525,0.9883863253664013,0.6796225212716209,0.9134176209331774,1.144085470378522,608.021978021978,818.3516483516484,797.3992673992674,805.4578754578755,664.0293040293041,-0.241699,0.148010,0.964966,0.388794,-1.629944,0.568237,450476.190476,128416336.996337,47073553.113553,112.592743,1,1,1,1,1,20.000000
2568-11-17 11:09:07.438,0.4580477345859532,0.6939213328518041,0.2493837229925446,0.5476143243551617,0.4074254707110137,0.5983125035733903,-0.1177478468430934,0.2128227436525135,0.3403602275011741,0.724630501225504,0.1106549973133619,0.3863420129334532,0.9109633575686363,0.9039999757285339,0.4672431918558118,1.033469015093002,0.8733154626206268,0.6477601788379679,0.8663925101767297,1.058427971056714,372.3076923076923,821.1721611721612,792.1611721611722,757.9120879120879,474.2490842490843,-0.240234,0.152283,0.962402,0.104675,-2.041168,0.112152,449670.329670,128538021.978022,47129963.369963,112.592743,1,1,1,1,1,20.000000
2568-11-17 11:09:08.448,0.5127666659398715,0.4915887277491885,0.3182378792414162,0.4127127149309681,0.4027957094958413,0.5726278899759124,0.2124445758060799,0.2190367877447972,0.6407493777685175,0.6091069071579758,0.4653339654680309,0.4911541519816527,0.9112404794077791,0.9271063491172422,0.5500022080556264,0.9542332917929179,0.7597594023879578,0.7938045777317074,0.8505977716926133,0.9126200655447435,940.0366300366301,817.5457875457876,800.2197802197802,799.4139194139194,656.3736263736264,-0.240784,0.146667,0.960083,0.441132,-1.398163,0.560760,450476.190476,128291428.571429,47000219.780220,112.592743,1,1,1,1,1,20.000000
2568-11-17 11:09:09.446,0.4464505238897235,0.8661792360788874,0.1079384257052163,0.1618272680292872,0.5271770353683077,0.7138431714498863,0.1408140441553625,0.3778916713101521,0.6820731277500657,0.6545332110724215,0.4887862525460206,0.5339675545399979,0.8482138790156009,0.9770616132039868,0.734802694131628,1.063894663982976,0.6857250576254503,0.7149134921991037,0.5924192941661728,1.176517543114657,470.6227106227107,802.6373626373627,793.3699633699634,758.7179487179487,743.0036630036631,-0.235962,0.148132,0.962830,0.672913,-1.054230,1.158905,449670.329670,128392161.172161,47046959.706960,112.592743,1,1,1,1,1,20.000000
2568-11-17 11:09:09.520,,,,,,,,,,,,,,,,,,,,,,,,,,,,,,,,,,,,,,,,,,/muse/elements/blink
2568-11-17 11:09:10.438,0.463559073455625,0.9927063955132388,0.05417971017408867,0.190649135055757,0.4961518497564576,0.7457667285387423,-0.06423754899377726,0.4799910087915225,0.5736040132509277,0.8026636826483672,0.2380793089859614,0.6601940892662106,0.7697993543751749,0.9532180477909867,0.6097469531649589,1.115790053053721,0.672945111791531,0.6281915675204061,0.5348705546994992,1.124259375266386,451.2820512820513,805.4578754578755,788.5347985347986,736.5567765567765,643.0769230769231,-0.228943,0.152161,0.963562,0.104675,-2.714081,-0.067291,449670.329670,128392161.172161,47037289.377289,112.592743,1,1,1,1,1,20.000000
2568-11-17 11:09:10.825,,,,,,,,,,,,,,,,,,,,,,,,,,,,,,,,,,,,,,,,,,/muse/elements/blink
2568-11-17 11:09:11.439,0.714440816843427,0.6906129241428857,0.1625333852639246,0.2219307534351444,0.4149039903772861,0.400391233586706,0.2176898731159438,0.5070665038039642,0.6088611168126014,0.7598342133880598,0.4934634251040533,0.840463136630288,0.8136980498630052,0.8994901723594051,0.6792358727737285,1.185977740155498,0.7047646765710532,0.5839264051727875,0.6330131393896425,0.8404619589098791,1043.992673992674,812.7106227106227,788.1318681318681,786.5201465201466,683.7728937728938,-0.234253,0.147156,0.964844,0.089722,-1.256104,-0.186920,448864.468864,128255164.835165,47031648.351648,112.592743,1,1,1,1,1,20.000000
2568-11-17 11:09:12.438,0.6416913849908946,0.354688245266588,0.3273995386110253,0.1687443802286238,0.4042687695495968,0.5319938447620113,0.3024457167777456,0.4981677551028516,0.6395496540171217,0.6847221634243029,0.3637073817326978,0.8274253273280957,0.844956567084851,0.7558514078992422,0.7502732646841083,1.1261658884872,0.7099651394736642,0.6107726777234269,0.5990824961789267,1.001945000883308,1187.838827838828,803.8461538461539,799.8168498168499,825.2014652014652,783.6996336996338,-0.228943,0.148010,0.958923,-0.261688,-1.286011,-0.411224,450476.190476,128394578.754579,47074358.974359,112.592743,1,1,1,1,1,20.000000
2568-11-17 11:09:13.367,,,,,,,,,,,,,,,,,,,,,,,,,,,,,,,,,,,,,,,,,,/muse/elements/blink
2568-11-17 11:09:13.438,0.7724743232163644,0.7517450144194001,0.2961994725046205,0.5143126591406443,0.2500304602307721,0.4901518225733471,0.1268841251431532,-0.01217836051079402,0.5393013448830282,0.6577125677502419,0.09540716659065684,0.2332984310330409,0.6879565996450803,0.7971657520213629,0.7218217446647912,0.9265760456130198,0.6423808347856035,0.5840198154643064,0.6073651634013397,1.025306385713519,531.8681318681319,810.2930402930403,814.7252747252747,759.1208791208792,535.8974358974359,-0.223145,0.145386,0.961914,-0.022430,-1.600037,-0.044861,451282.051282,128285787.545788,47018754.578755,112.592743,1,1,1,1,1,20.000000
2568-11-17 11:09:14.446,0.7474685816883561,0.8261251581722541,0.3165563158363509,0.4019398210123565,0.3140953903465191,0.5326069803846494,0.1824552715150678,0.260879094337962,0.5844430985051976,0.5547185969685642,0.3155183629809477,0.6422671228334901,0.750261341902681,0.7957657277016623,0.6017504486302684,0.844865387527081,0.6969261260995024,0.686441406883612,0.7508412540306949,1.059378873246304,1110.879120879121,807.0695970695971,792.1611721611722,832.0512820512821,1244.249084249084,-0.226257,0.150146,0.967102,0.029907,-0.777588,0.089722,451282.051282,128392161.172161,47045347.985348,112.592743,1,1,1,1,1,20.000000
2568-11-17 11:09:14.717,,,,,,,,,,,,,,,,,,,,,,,,,,,,,,,,,,,,,,,,,,/muse/elements/blink
2568-11-17 11:09:15.442,0.8817828618911232,0.963473553606271,0.3894568974925662,0.5443206582966735,0.4171720586603275,0.6016507971725968,0.178398491088127,0.498509954951087,0.5076874310207038,0.7881124561505665,0.3539000589706722,0.7263924875617704,0.7640660517953008,0.745650906385564,0.6006463078859645,0.9964856379752272,0.7736487602247403,0.7071034189136366,0.6930240228583072,1.088184442734994,356.5934065934066,803.040293040293,785.7142857142858,748.2417582417582,597.1428571428571,-0.225586,0.144165,0.971497,0.418701,-1.435547,-0.149536,451282.051282,128460659.340659,47090476.190476,112.592743,1,1,1,1,1,20.000000
2568-11-17 11:09:15.940,,,,,,,,,,,,,,,,,,,,,,,,,,,,,,,,,,,,,,,,,,/muse/elements/blink
2568-11-17 11:09:16.139,,,,,,,,,,,,,,,,,,,,,,,,,,,,,,,,,,,,,,,,,,/muse/elements/blink
2568-11-17 11:09:16.443,0.4700350825199657,1.004415785484954,0.5097069884288878,0.6687716563447716,0.4621048802802183,0.5702156352943655,0.1092342825268417,0.3441968489461379,0.8755120422771087,0.8135773103714441,0.4747717237044654,0.9175840926581252,1.01483468882185,0.8427420909824722,0.7421668508019317,1.059914022963407,0.7663158509925297,0.6007408694118584,0.6107869070829574,0.9894272160841796,563.2967032967033,800.2197802197802,793.7728937728938,739.7802197802198,587.8754578754579,-0.223877,0.147705,0.962646,0.396271,-1.428070,0.478516,448864.468864,128182637.362637,46955897.435897,112.592743,1,1,1,1,1,20.000000
2568-11-17 11:09:17.261,,,,,,,,,,,,,,,,,,,,,,,,,,,,,,,,,,,,,,,,,,/muse/elements/blink
2568-11-17 11:09:17.439,0.5091574698221688,0.5602982341099317,0.1167750655177797,0.1949187909622354,0.5801676736903778,0.2975976945078455,0.06216117647897174,0.2046826607116481,0.932297793509517,0.4854276149846289,0.4655239086257612,0.9054720121214591,1.023848131444238,0.8434286343787651,0.7674864808747086,1.240524933786563,0.8261179845183734,0.4996457022838085,0.6051268561883567,1.054135252871809,883.2234432234433,807.4725274725275,798.2051282051282,826.8131868131868,723.2600732600732,-0.224609,0.154053,0.965515,0.583191,-1.323395,0.306549,450476.190476,128293846.153846,47033260.073260,112.592743,1,1,1,1,1,20.000000
2568-11-17 11:09:18.439,0.7999607095241528,0.5415122141332592,0.1249311204132917,0.4841686925035987,0.636895819290963,0.3425506896545102,0.2213103590783032,0.419700750428278,0.6989221758698634,0.552831868161372,0.3570752685141675,0.4407423128856551,0.9387197023706385,0.9148232450556563,0.7395597691946314,1.024103854524332,0.7908305320829756,0.43867546115043,0.667550437862348,1.12768368630795,404.1391941391942,826.007326007326,802.2344322344322,732.1245421245421,684.5787545787546,-0.216064,0.155884,0.965088,0.171967,-1.899109,-0.418701,451282.051282,128376849.816850,47046153.846154,112.592743,1,1,1,1,1,20.000000
2568-11-17 11:09:18.674,,,,,,,,,,,,,,,,,,,,,,,,,,,,,,,,,,,,,,,,,,/muse/elements/blink
2568-11-17 11:09:19.439,0.6840687940228656,0.7742093699190976,0.06824642380957505,0.3492420375616702,0.1199960913170623,0.3183686143071995,0.132197271511442,0.1977268941549453,0.4126917639921446,0.6242436850817205,0.266610934026665,0.4784218280509375,0.8676522191579118,0.872046592132644,0.7736124819600071,1.322756943012342,0.7151270356992064,0.6090166389763082,0.6941131620113089,0.8472311916353801,531.0622710622711,801.8315018315019,796.1904761904763,756.3003663003664,408.1684981684982,-0.223022,0.157715,0.961853,0.112152,-1.547699,-0.067291,450476.190476,128077069.597070,46958315.018315,112.592743,1,1,1,1,1,20.000000
2568-11-17 11:09:20.446,0.8705333004817585,0.516433931048072,0.05471188646604357,0.2554976604538105,0.3163484871993834,0.06397345247087673,-0.05937967408947706,0.1121018948627051,0.3729471096508472,0.6651628567610677,0.4371464364685137,0.5469134607527264,0.8048938173512137,0.7564022144099913,0.6010449691835704,1.245896370020223,0.7453628579092267,0.6539852186770378,0.6234883303666694,0.7683506934524678,1056.483516483516,815.1282051282052,793.7728937728938,833.2600732600733,681.3553113553114,-0.223267,0.155579,0.966980,0.007477,-1.719666,-0.164490,450476.190476,128226153.846154,46980879.120879,112.592743,1,1,1,1,1,20.000000
2568-11-17 11:09:21.443,0.7195753562844943,0.185364493244157,0.2369085020190599,0.3443532271178139,0.6113129378249011,0.3294677069963117,0.1000965523187163,0.5200928751779299,0.5965685731992568,0.9073037173974998,0.4753497617480376,0.6161542520015343,0.7540441444195117,0.7871758937507737,0.5324849851960242,1.118634541702644,0.7943497983874865,0.5568159026693041,0.7344367156680427,0.7596029824439434,458.9377289377289,793.7728937728938,813.919413919414,761.1355311355312,460.5494505494506,-0.215515,0.152893,0.961304,0.052338,-1.600037,-0.179443,448864.468864,128072234.432234,46945421.245421,112.592743,1,1,1,1,1,20.000000
2568-11-17 11:09:22.445,0.795195855222432,0.630029735336601,0.3025988496495749,0.5058111081347707,0.6143238936921029,0.3693507743823413,-0.03997353597364846,0.4742882418988612,0.6584628381271911,0.94799624576723,0.5060572712896302,0.6189168178272472,0.7671509259768005,0.5429121028261019,0.7151730930955471,1.10609856926723,0.7746213311333182,0.6077690877668172,0.5953564742938461,0.8342718403141908,413.4065934065934,819.1575091575091,799.4139194139194,720.4395604395604,537.1062271062272,-0.223938,0.167969,0.967773,0.209351,-1.188812,0.994415,448864.468864,128093186.813187,46943809.523810,112.592743,1,1,1,1,1,20.000000
2568-11-17 11:09:22.656,,,,,,,,,,,,,,,,,,,,,,,,,,,,,,,,,,,,,,,,,,/muse/elements/blink
2568-11-17 11:09:23.444,0.553633935272653,0.7368545635243483,0.1393203991687945,0.5577249064408393,0.498132447238021,0.3807799322572469,-0.05767319195712409,0.4474266366088788,0.6272469175057326,0.7774864043272326,0.3587938185729875,0.5765527896253528,0.9251424206858333,0.8681130857456347,0.5386117058863333,1.261860662339032,0.716337246206036,0.6968542866864029,0.5489449370218835,0.9170329663390667,1126.593406593407,831.6483516483516,792.1611721611722,837.2893772893773,774.4322344322345,-0.227783,0.149353,0.965759,0.171967,-1.614990,-0.246735,450476.190476,128260000.000000,47009084.249084,112.592743,1,1,1,1,1,20.000000
2568-11-17 11:09:23.959,,,,,,,,,,,,,,,,,,,,,,,,,,,,,,,,,,,,,,,,,,/muse/elements/blink
2568-11-17 11:09:24.439,0.543621353551993,0.845306364752474,0.07293839027924515,0.02514229888231773,0.4202852489226649,0.5224201122107434,0.3017220988506503,0.3670118645189682,0.6794637007909534,0.7617958867500614,0.4789790275089389,0.5794729013327699,0.9054333142322539,0.922138618187019,0.4759921709925477,1.287109388528715,0.6110573262787881,0.7088764544832655,0.5861271329339091,1.0067405687506,674.9084249084249,808.6813186813187,804.2490842490843,774.8351648351648,821.1721611721612,-0.225708,0.156372,0.959961,0.007477,-1.315918,0.119629,450476.190476,127966666.666667,46884175.824176,112.592743,1,1,1,1,1,20.000000
2568-11-17 11:09:25.179,,,,,,,,,,,,,,,,,,,,,,,,,,,,,,,,,,,,,,,,,,/muse/elements/blink
2568-11-17 11:09:25.439,0.7422237353056568,0.6498823080918147,0.06244857658302035,0.2622556796270873,0.6333837465438916,0.4245243171694711,0.02647313899221181,0.4894580525956691,0.6784080276803586,0.8117606192263073,0.4086508421535093,0.5295773165721797,0.7360534276806303,0.9775357853152744,0.7436803457306299,1.209755370538039,0.6410028303695648,0.7540900621278733,0.7663263111896237,1.060352716792569,364.6520146520147,811.5018315018315,785.3113553113553,718.8278388278388,471.8315018315018,-0.220825,0.158630,0.963989,0.201874,-1.256104,0.800018,449670.329670,128073846.153846,46923663.003663,112.592743,1,1,1,1,1,20.000000
2568-11-17 11:09:25.466,,,,,,,,,,,,,,,,,,,,,,,,,,,,,,,,,,,,,,,,,,/muse/elements/blink
2568-11-17 11:09:26.438,0.2578078904839621,0.6132624019932821,0.04898851983932342,0.4720514569337959,0.6247318651361928,0.1794008988634401,0.1119117859529704,0.58504007283836,0.369800732549177,0.7967547587755551,0.3257546946750265,0.4845914142422632,0.7771407412819222,0.9231084793630325,0.8034223832571002,1.319748722959905,0.7129304370011244,0.717716286363061,0.7720028457935649,1.140582049710105,534.2857142857143,819.5604395604396,793.7728937728938,762.3443223443223,474.2490842490843,-0.215454,0.164673,0.960388,-0.254211,-1.921539,-0.568237,449670.329670,128172967.032967,46947838.827839,112.592743,1,1,1,1,1,20.000000
2568-11-17 11:09:26.907,,,,,,,,,,,,,,,,,,,,,,,,,,,,,,,,,,,,,,,,,,/muse/elements/blink
2568-11-17 11:09:27.449,0.3374722437276799,0.5355145309174367,0.4169606916458553,0.6267159924054302,0.6056864745367802,0.4163741492418427,0.1718830343659465,0.3879071542045784,0.9628316016538652,0.7461576742650207,0.5415317128266766,0.5899337347673262,0.7241886048790206,0.8334895685006265,0.5427463970322248,1.14264674862279,0.6505156904923294,0.6731107530386335,0.7067855363817622,0.9999668891037056,1021.831501831502,789.7435897435897,801.025641025641,823.1868131868132,763.1501831501831,-0.218140,0.158569,0.963440,0.306549,-1.375732,-0.157013,449670.329670,127928791.208791,46853553.113553,112.592743,1,1,1,1,1,20.000000
2568-11-17 11:09:28.447,0.470896200143837,0.8217650787514015,0.3340373014084084,0.4638025962928552,0.6234686705243179,0.6544532632751604,0.3302067516376077,0.3466866909647265,0.9679520942243199,0.7041866000655987,0.6231171188323874,0.6097346223090977,0.8402287565100628,0.7190599374214648,0.7316020511909099,0.9730471868458985,0.7518568847332973,0.610643363727316,0.6105074205440159,0.9902126188886854,617.2893772893773,826.8131868131868,803.8461538461539,805.8608058608058,660.8058608058608,-0.220520,0.155396,0.957642,0.127106,-1.592560,-0.059814,450476.190476,128027912.087912,46891428.571429,112.592743,1,1,1,1,1,20.000000
2568-11-17 11:09:29.441,0.4768286221503429,0.881905499789536,0.4508378785591227,0.5091610594737319,0.3895379979500504,0.5935945940724461,0.3167868240027874,0.3323918958077228,0.2151177572568355,0.7226622105408101,0.6549856859579635,0.4684996342018179,0.8411147211269621,0.6664916881151726,0.7255022236052722,1.06003782289294,0.8203825168168821,0.5824143986652638,0.6146125445230308,0.8083413337324133,1169.304029304029,790.952380952381,796.996336996337,828.021978021978,864.6886446886447,-0.217102,0.158325,0.965515,0.194397,-1.263580,-0.037384,449670.329670,127811941.391941,46835018.315018,112.592743,1,1,1,1,1,20.000000
2568-11-17 11:09:30.438,0.4778439329207605,0.7788753455046199,0.6168320944525273,0.5292566044996868,0.472812946781037,0.5478737818227168,0.1820028497673762,0.1641025196828629,0.1416036380446523,0.5920772720787064,0.3698112327341804,0.5937895976285067,0.8579259405254727,0.9086277064955159,0.592909597549344,1.004602386390153,0.8424739525771573,0.7118832035407854,0.5878403360352237,0.7319103178580726,1157.619047619048,800.6227106227107,777.2527472527473,805.4578754578755,842.9304029304029,-0.221619,0.162170,0.965393,0.209351,-1.405640,0.441132,450476.190476,127894945.054945,46860000.000000,112.592743,1,1,1,1,1,20.000000
2568-11-17 11:09:30.858,,,,,,,,,,,,,,,,,,,,,,,,,,,,,,,,,,,,,,,,,,/muse/elements/blink
2568-11-17 11:09:31.438,1.021804082495499,0.7316637578390981,0.7579241526148106,0.6232931027041873,0.6319573923426692,0.5912246905840359,0.2844412617626085,0.06055432882685991,0.5876439124868883,0.646137282977221,0.2896884288245453,0.6342313669601948,0.7084808537378436,0.9928333273607072,0.5092794126420045,0.9770206893154455,0.6865286231778652,0.6526802577639738,0.5289179949703324,0.6665338046309853,790.1465201465202,785.7142857142858,821.978021978022,836.8864468864469,678.9377289377289,-0.222046,0.166199,0.961731,0.388794,-1.652374,0.186920,451282.051282,128050476.190476,46921245.421245,112.592743,1,1,1,1,1,20.000000
2568-11-17 11:09:32.448,1.1141274315954,0.8745376248740407,0.8454724915522425,0.5997584367236106,0.7310244010967338,0.5854654935809273,0.2448788201094969,0.1193801697274033,0.4782082561939696,0.5248751517804557,0.3107554313919241,0.618251790815649,0.6748531664927806,1.05715485922341,0.6773645662484072,1.079299432277559,0.7428195944789059,0.7390638850040609,0.4379126737441347,0.6803392417280252,415.018315018315,809.8901098901099,794.981684981685,738.5714285714286,668.0586080586081,-0.226379,0.156616,0.963440,-0.052338,-1.121521,-0.119629,449670.329670,127727326.007326,46774578.754579,112.592743,1,1,1,1,1,20.000000
2568-11-17 11:09:33.444,1.1141274315954,0.9743182803312953,0.9901924270743243,0.5997584367236106,0.7310244010967338,0.606553491895379,0.2184562540433612,0.1193801697274033,0.4782082561939696,0.2901171126560956,0.2457945918623093,0.618251790815649,0.6748531664927806,0.9754419500511877,0.8292584967345492,1.079299432277559,0.7428195944789059,0.8636707490658488,0.2331373558071091,0.6803392417280252,1245.457875457875,811.5018315018315,786.5201465201466,881.6117216117217,604.7985347985348,-0.232971,0.161194,0.965637,0.059814,-1.106567,0.089722,450476.190476,127720073.260073,46778608.058608,112.592743,1,1,1,1,1,20.000000
2568-11-17 11:09:33.481,,,,,,,,,,,,,,,,,,,,,,,,,,,,,,,,,,,,,,,,,,/muse/elements/blink
2568-11-17 11:09:34.439,1.1141274315954,0.9743182803312953,1.033928931307754,0.5997584367236106,0.7310244010967338,0.606553491895379,0.1316175408763598,0.1193801697274033,0.4782082561939696,0.2901171126560956,0.1698682944376115,0.618251790815649,0.6748531664927806,0.9754419500511877,0.8687985866065859,1.079299432277559,0.7428195944789059,0.8636707490658488,0.09483199653153807,0.6803392417280252,1167.692307692308,787.3260073260074,793.7728937728938,892.4908424908425,712.3809523809524,-0.224670,0.162292,0.959412,0.321503,0.672913,0.074768,450476.190476,127894945.054945,46834212.454212,112.592743,1,2,1,1,2,20.000000
2568-11-17 11:09:34.509,,,,,,,,,,,,,,,,,,,,,,,,,,,,,,,,,,,,,,,,,,/muse/elements/blink
2568-11-17 11:09:35.017,,,,,,,,,,,,,,,,,,,,,,,,,,,,,,,,,,,,,,,,,,/muse/elements/blink
2568-11-17 11:09:35.215,,,,,,,,,,,,,,,,,,,,,,,,,,,,,,,,,,,,,,,,,,/muse/elements/blink
2568-11-17 11:09:35.451,1.1141274315954,0.9743182803312953,1.042316018377925,0.5997584367236106,0.7310244010967338,0.606553491895379,0.7162195378543328,0.1193801697274033,0.4782082561939696,0.2901171126560956,0.3378328611798034,0.618251790815649,0.6748531664927806,0.9754419500511877,0.6140722645420147,1.079299432277559,0.7428195944789059,0.8636707490658488,0.4546283515783115,0.6803392417280252,701.9047619047619,811.0989010989011,795.3846153846154,795.3846153846154,733.3333333333334,-0.393677,0.076782,0.912537,-2.437439,3.095398,-2.960815,447252.747253,127882857.142857,46818901.098901,112.592743,1,2,1,1,2,20.000000
2568-11-17 11:09:35.926,,,,,,,,,,,,,,,,,,,,,,,,,,,,,,,,,,,,,,,,,,/muse/elements/blink
2568-11-17 11:09:36.253,,,,,,,,,,,,,,,,,,,,,,,,,,,,,,,,,,,,,,,,,,/muse/elements/blink
2568-11-17 11:09:36.441,1.1141274315954,0.9743182803312953,1.053211323331213,0.5997584367236106,0.7310244010967338,0.606553491895379,0.7563891947145458,0.1193801697274033,0.4782082561939696,0.2901171126560956,0.3355592937641836,0.618251790815649,0.6748531664927806,0.9754419500511877,0.6040518064763643,1.079299432277559,0.7428195944789059,0.8636707490658488,0.4218098276927138,0.6803392417280252,1006.923076923077,823.5897435897436,799.4139194139194,825.6043956043957,795.3846153846154,-0.444275,0.028320,0.904785,0.687866,-1.495361,-0.568237,448058.608059,128098021.978022,46904322.344322,112.592743,1,2,1,1,2,20.000000
2568-11-17 11:09:37.438,1.1141274315954,0.9743182803312953,1.053211323331213,0.5997584367236106,0.7310244010967338,0.606553491895379,0.7563891947145458,0.1193801697274033,0.4782082561939696,0.2901171126560956,0.3355592937641836,0.618251790815649,0.6748531664927806,0.9754419500511877,0.6040518064763643,1.079299432277559,0.7428195944789059,0.8636707490658488,0.4218098276927138,0.6803392417280252,1193.479853479854,821.5750915750916,822.3809523809524,880,692.6373626373627,-0.438171,0.035461,0.897156,-0.770111,-1.876678,-0.979462,447252.747253,128089157.509158,46889816.849817,112.592743,1,2,1,1,2,20.000000
2568-11-17 11:09:37.552,,,,,,,,,,,,,,,,,,,,,,,,,,,,,,,,,,,,,,,,,,/muse/elements/blink
2568-11-17 11:09:37.752,,,,,,,,,,,,,,,,,,,,,,,,,,,,,,,,,,,,,,,,,,/muse/elements/blink
2568-11-17 11:09:38.441,1.1141274315954,0.9743182803312953,1.053211323331213,0.5997584367236106,0.7310244010967338,0.606553491895379,0.7563891947145458,0.1193801697274033,0.4782082561939696,0.2901171126560956,0.3355592937641836,0.618251790815649,0.6748531664927806,0.9754419500511877,0.6040518064763643,1.079299432277559,0.7428195944789059,0.8636707490658488,0.4218098276927138,0.6803392417280252,379.96336996337,804.6520146520147,784.1025641025641,732.5274725274726,681.3553113553114,-0.435791,0.051636,0.897034,0.889740,-2.347717,0.059814,448864.468864,128256776.556777,46982490.842491,112.592743,1,2,1,1,2,20.000000
2568-11-17 11:09:38.864,,,,,,,,,,,,,,,,,,,,,,,,,,,,,,,,,,,,,,,,,,/muse/elements/blink
2568-11-17 11:09:39.087,,,,,,,,,,,,,,,,,,,,,,,,,,,,,,,,,,,,,,,,,,/muse/elements/blink
2568-11-17 11:09:39.438,1.1141274315954,1.120052865168247,1.053211323331213,0.5997584367236106,0.7310244010967338,0.7938668920687278,0.7563891947145458,0.1193801697274033,0.4782082561939696,0.7222740436906464,0.3355592937641836,0.618251790815649,0.6748531664927806,0.9164801728566844,0.6040518064763643,1.079299432277559,0.7428195944789059,0.561319766232809,0.4218098276927138,0.6803392417280252,566.5201465201466,794.5787545787546,798.6080586080586,760.3296703296703,644.6886446886447,-0.425049,0.057312,0.906128,0.044861,-0.979462,0.388794,448058.608059,128131062.271062,46925274.725275,112.592743,1,2,1,1,2,20.000000
2568-11-17 11:09:40.438,1.166301846838266,1.182148514550624,0.8501438161875122,0.5997584367236106,0.6869929297259051,0.8619106794838021,0.5791126673706465,0.1193801697274033,0.6884368916374496,0.7813106905433235,0.64292527039943,0.618251790815649,0.8116997034197918,0.9237494411195993,0.7897083903086303,1.079299432277559,0.5218035302833054,0.6825201499829386,0.48464663977469,0.6803392417280252,982.3443223443223,816.7399267399268,797.8021978021978,829.6336996336996,559.6703296703297,-0.419861,0.061646,0.908936,0.201874,-2.190704,0.725250,448864.468864,128283369.963370,46995384.615385,112.592743,1,2,1,1,2,20.000000
2568-11-17 11:09:40.499,,,,,,,,,,,,,,,,,,,,,,,,,,,,,,,,,,,,,,,,,,/muse/elements/blink
2568-11-17 11:09:41.440,1.161457656742084,0.3134718511443974,0.7287766170847845,0.7014477156868096,0.6481949193492201,0.6590579638022499,0.5467530396563022,0.4648872920269912,0.8709772196952122,0.6789640342472322,0.6251885419396279,0.6423074844993849,0.8909213923763817,0.9304327106443975,0.7649234063832465,1.054559718075384,0.4907830418390446,0.5793837893711303,0.4481471197327181,1.073767992389302,1051.245421245421,807.0695970695971,790.952380952381,844.9450549450549,740.5860805860806,-0.404602,0.063782,0.914917,-0.007477,-1.614990,-0.216827,448864.468864,128030329.670330,46918827.838828,112.592743,1,1,1,1,1,20.000000
2568-11-17 11:09:42.002,,,,,,,,,,,,,,,,,,,,,,,,,,,,,,,,,,,,,,,,,,/muse/elements/blink
2568-11-17 11:09:42.442,0.9644860608144505,0.7388385953356889,0.9132502905037877,0.8329680443219357,0.5217040174557819,0.6367425482648738,0.4243934073468424,0.6105498450754404,0.6284891771158682,0.9862916257007419,0.5413543641594055,0.7666255008398041,0.9855267961462894,0.8710262679345511,0.7365799937674438,0.943451665530168,0.5328469197940053,0.6154995228536986,0.6068436634545857,0.9909649217946674,264.3223443223443,781.2820512820513,822.7838827838829,624.5421245421246,755.0915750915751,-0.406311,0.056824,0.914429,0.119629,-1.390686,-0.044861,448864.468864,128188278.388278,46927692.307692,112.592743,1,1,1,1,1,20.000000
2568-11-17 11:09:43.051,,,,,,,,,,,,,,,,,,,,,,,,,,,,,,,,,,,,,,,,,,/muse/elements/blink
2568-11-17 11:09:43.363,,,,,,,,,,,,,,,,,,,,,,,,,,,,,,,,,,,,,,,,,,/muse/elements/blink
2568-11-17 11:09:43.443,0.9644860608144505,0.8369305436402773,1.061992841984955,0.8203975128960668,0.5217040174557819,0.8360216044537793,0.7019056136034497,0.5309749235305622,0.6284891771158682,0.8852217811729741,0.4983541051929691,0.7554798026311347,0.9855267961462894,0.885774101558287,0.7682665641677183,0.8814223994355872,0.5328469197940053,0.6915155337544252,0.6153736601368196,0.9648864269765278,628.5714285714286,817.948717948718,793.3699633699634,756.7032967032967,666.4468864468864,-0.402283,0.057800,0.912903,0.119629,-1.689758,-0.194397,448058.608059,128045641.025641,46868864.468864,112.592743,1,1,1,1,1,20.000000
2568-11-17 11:09:44.439,0.9644860608144505,0.998967641705731,0.9314566368585506,0.8203975128960668,0.5217040174557819,1.070926245022253,0.8234060973653264,0.5309749235305622,0.6284891771158682,0.7991167026106153,0.4229173190934199,0.7554798026311347,0.9855267961462894,0.8821701098110615,0.8011210045469275,0.8814223994355872,0.5328469197940053,0.6404890500787279,0.5078350199765934,0.9648864269765278,1001.684981684982,817.948717948718,789.3406593406594,818.3516483516484,740.5860805860806,-0.403198,0.055054,0.916748,-0.014954,-1.383209,-0.254211,448864.468864,128135897.435897,46898681.318681,112.592743,1,1,1,1,1,20.000000
2568-11-17 11:09:44.667,,,,,,,,,,,,,,,,,,,,,,,,,,,,,,,,,,,,,,,,,,/muse/elements/blink
2568-11-17 11:09:45.438,0.9644860608144505,1.388747754157417,0.9314566368585506,0.8203975128960668,0.5217040174557819,1.237358930316062,0.8234060973653264,0.5309749235305622,0.6284891771158682,0.6850696467107484,0.4229173190934199,0.7554798026311347,0.9855267961462894,0.7785891873672202,0.8011210045469275,0.8814223994355872,0.5328469197940053,0.4368829338270284,0.5078350199765934,0.9648864269765278,570.5494505494505,807.0695970695971,781.6849816849817,734.9450549450549,628.974358974359,-0.150024,0.054199,0.975769,5.390778,-35.574646,-26.520233,445641.025641,128218901.098901,47043736.263736,112.592743,1,2,1,1,2,20.000000
2568-11-17 11:09:45.792,,,,,,,,,,,,,,,,,,,,,,,,,,,,,,,,,,,,,,,,,,/muse/elements/blink
2568-11-17 11:09:46.438,0.9644860608144505,1.388747754157417,0.9430293925404978,0.8203975128960668,0.5217040174557819,1.237358930316062,0.8121392998429889,0.5309749235305622,0.6284891771158682,0.6850696467107484,0.6083003302547095,0.7554798026311347,0.9855267961462894,0.7785891873672202,0.2964354358139102,0.8814223994355872,0.5328469197940053,0.4368829338270284,0.2961603815093281,0.9648864269765278,1229.340659340659,800.2197802197802,795.3846153846154,716.4102564102565,516.959706959707,0.191833,-0.054199,0.971130,-13.929291,-2.975769,-3.843079,428717.948718,127118095.238095,46695604.395604,112.592743,1,2,1,1,2,20.000000
2568-11-17 11:09:47.116,,,,,,,,,,,,,,,,,,,,,,,,,,,,,,,,,,,,,,,,,,/muse/elements/blink
