TimeStamp,Delta_TP9,Delta_AF7,Delta_AF8,Delta_TP10,Theta_TP9,Theta_AF7,Theta_AF8,Theta_TP10,Alpha_TP9,Alpha_AF7,Alpha_AF8,Alpha_TP10,Beta_TP9,Beta_AF7,Beta_AF8,Beta_TP10,Gamma_TP9,Gamma_AF7,Gamma_AF8,Gamma_TP10,RAW_TP9,RAW_AF7,RAW_AF8,RAW_TP10,AUX_RIGHT,Accelerometer_X,Accelerometer_Y,Accelerometer_Z,Gyro_X,Gyro_Y,Gyro_Z,PPG_Ambient,PPG_IR,PPG_Red,Heart_Rate,HeadBandOn,HSI_TP9,HSI_AF7,HSI_AF8,HSI_TP10,Battery,Elements
2568-11-17 11:23:12.751,,,,,,,,,,,,,,,,,,,,,,,,,,,,,,,,,,,,,,,,,,/muse/event/connected Muse-2016
2568-11-17 11:23:12.888,,,,,,,,,,,,,,,,,,,,,,,,,,,,,,,,,,,,,,,,,,/muse/elements/blink
2568-11-17 11:23:12.962,,,,,,,,,,,,,,,,,,,,,,,,,,,,,,,,,,,,,,,,,,/muse/elements/blink
2568-11-17 11:23:13.752,0,1.091116974372419,0.6995071115004655,1.384952208996754,0,0.8151073687950717,0.7510717008707498,0.9097067800391762,0,0.6736581822152414,0.7433587365649936,0.6073258817445211,0,0.5041974188864285,0.6688047180421866,0.7394640337387565,0,-0.1345630801229052,0.09130740806262591,0.03923897820938534,1625.824175824176,797.8021978021978,803.8461538461539,730.1098901098901,593.1135531135532,0.036804,0.014526,1.002197,-0.657959,-2.579498,0.134583,444835.164835,111921172.161172,36878608.058608,112.592743,1,2,1,1,2,100.000000
2568-11-17 11:23:14.754,0,1.091116974372419,0.6995071115004655,1.384952208996754,0,0.8151073687950717,0.7510717008707498,0.9097067800391762,0,0.6736581822152414,0.7433587365649936,0.6073258817445211,0,0.5041974188864285,0.6688047180421866,0.7394640337387565,0,-0.1345630801229052,0.09130740806262591,0.03923897820938534,883.6263736263736,803.040293040293,788.9377289377289,703.919413919414,656.7765567765568,0.045349,0.018433,1.000183,-0.366364,-2.168274,0.194397,444835.164835,111883296.703297,36859267.399267,112.592743,1,4,1,1,2,100.000000
2568-11-17 11:23:15.752,0,0.7672429048563961,0.9207549689029033,1.384952208996754,0,0.2826326433292681,0.550570642503465,0.9097067800391762,0,0.3832520819599682,0.6227330626278156,0.6073258817445211,0,0.1217125389002581,0.3148398511496067,0.7394640337387565,0,-0.3594050583747799,-0.3142749613881688,0.03923897820938534,1137.472527472527,808.2783882783883,805.0549450549451,768.3882783882784,582.6373626373627,0.047729,0.025757,1.005676,-0.007477,-1.667328,-0.538330,444835.164835,111837362.637363,36813333.333333,112.592743,1,4,1,1,2,100.000000
2568-11-17 11:23:16.752,0,1.032017616884076,1.22618178182424,1.384952208996754,0,0.3110485387473598,0.3337756832255236,0.9097067800391762,0,0.3332194454893059,0.7408450554319511,0.6073258817445211,0,0.1607259390144723,0.3027868084015012,0.7394640337387565,0,-0.3604386908829804,-0.258232046067427,0.03923897820938534,912.2344322344322,812.7106227106227,817.948717948718,782.4908424908425,712.3809523809524,0.036804,0.018982,1.001831,-1.076660,-1.899109,-0.164490,443223.443223,111707619.047619,36760952.380952,112.592743,1,2,1,1,2,100.000000
2568-11-17 11:23:17.048,,,,,,,,,,,,,,,,,,,,,,,,,,,,,,,,,,,,,,,,,,/muse/elements/blink
2568-11-17 11:23:17.652,,,,,,,,,,,,,,,,,,,,,,,,,,,,,,,,,,,,,,,,,,/muse/elements/blink
2568-11-17 11:23:17.762,0,1.313752767091977,1.233075587290036,1.384952208996754,0,0.8769164324651265,0.7432353256780332,0.9097067800391762,0,0.5732946815624702,0.9891702780338192,0.6073258817445211,0,0.08070159480851735,0.5917222433282856,0.7394640337387565,0,-0.3172866618474421,0.1805589589693861,0.03923897820938534,969.4505494505495,844.1391941391942,822.7838827838829,819.96336996337,635.0183150183151,0.035889,0.022583,1.012329,-0.672913,0.261688,-0.059814,444835.164835,112527179.487179,37282344.322344,112.592743,1,2,1,1,2,100.000000
2568-11-17 11:23:18.752,0,1.625217836084716,0.833176595185564,1.384952208996754,0,1.214818622644042,1.102387893310223,0.9097067800391762,0,0.5460224011808229,0.9453166652089524,0.6073258817445211,0,-0.01533727745922204,0.6842848964448193,0.7394640337387565,0,-0.2537210715561672,0.4731640322614338,0.03923897820938534,0,808.2783882783883,805.8608058608058,781.2820512820513,724.0659340659341,0.039734,0.016907,1.006531,-0.366364,-1.465454,0.157013,446446.886447,112035604.395604,37400000.000000,112.592743,1,2,1,1,2,100.000000
2568-11-17 11:23:19.752,0,1.625217836084716,0.833176595185564,1.384952208996754,0,1.214818622644042,1.102387893310223,0.9097067800391762,0,0.5460224011808229,0.9453166652089524,0.6073258817445211,0,-0.01533727745922204,0.6842848964448193,0.7394640337387565,0,-0.2537210715561672,0.4731640322614338,0.03923897820938534,987.985347985348,786.9230769230769,806.2637362637363,775.6410256410256,736.1538461538462,0.038879,0.026672,1.003967,-0.044861,-1.517792,0.112152,445641.025641,111161245.421245,37203369.963370,112.592743,1,4,1,1,2,100.000000
2568-11-17 11:23:20.097,,,,,,,,,,,,,,,,,,,,,,,,,,,,,,,,,,,,,,,,,,/muse/elements/blink
2568-11-17 11:23:20.758,0,0.8728941836504103,0.833176595185564,1.384952208996754,0,0.8546526743872707,1.102387893310223,0.9097067800391762,0,0.6561852473449858,0.9453166652089524,0.6073258817445211,0,0.4965850680879975,0.6842848964448193,0.7394640337387565,0,0.2080820083200783,0.4731640322614338,0.03923897820938534,815.1282051282052,800.2197802197802,792.5641025641025,782.893772893773,581.025641025641,0.036804,0.032104,1.008240,-0.029907,-1.099091,0.171967,446446.886447,111447326.007326,37528131.868132,112.592743,1,2,1,1,2,100.000000
2568-11-17 11:23:21.315,,,,,,,,,,,,,,,,,,,,,,,,,,,,,,,,,,,,,,,,,,/muse/elements/blink
2568-11-17 11:23:21.737,,,,,,,,,,,,,,,,,,,,,,,,,,,,,,,,,,,,,,,,,,/muse/elements/blink
2568-11-17 11:23:21.752,0,0.8938328969728807,0.833176595185564,1.384952208996754,0,0.6387577574021837,1.102387893310223,0.9097067800391762,0,0.7119741738043635,0.9453166652089524,0.6073258817445211,0,0.5791508840260922,0.6842848964448193,0.7394640337387565,0,0.2740118329980147,0.4731640322614338,0.03923897820938534,856.6300366300367,793.7728937728938,788.1318681318681,755.4945054945055,682.5641025641025,0.042419,0.024902,1.006287,-0.545807,-1.547699,0.097198,447252.747253,110998461.538462,37507179.487179,112.592743,1,2,1,1,2,100.000000
2568-11-17 11:23:22.022,,,,,,,,,,,,,,,,,,,,,,,,,,,,,,,,,,,,,,,,,,/muse/elements/blink
2568-11-17 11:23:22.752,0,1.010046618090229,0.833176595185564,1.384952208996754,0,0.4485043671872866,1.102387893310223,0.9097067800391762,0,0.4418315936040715,0.9453166652089524,0.6073258817445211,0,0.4762056704056699,0.6842848964448193,0.7394640337387565,0,0.1240762367712597,0.4731640322614338,0.03923897820938534,919.0842490842491,799.8168498168499,827.6190476190476,749.047619047619,553.6263736263736,0.044495,0.026062,1.008423,-0.493469,-1.054230,-0.134583,448058.608059,110968644.688645,37542637.362637,112.592743,1,2,1,1,2,100.000000
2568-11-17 11:23:23.551,,,,,,,,,,,,,,,,,,,,,,,,,,,,,,,,,,,,,,,,,,/muse/elements/blink
2568-11-17 11:23:23.763,0,0.8617322151498942,0.7108760093566826,1.384952208996754,0,-0.2679552198281475,0.3678548479351293,0.9097067800391762,0,-0.126508506408707,0.2196005395079504,0.6073258817445211,0,-0.002942600567093395,0.7770689127639642,0.7394640337387565,0,-0.2644118353587511,0.5903713893751392,0.03923897820938534,869.5238095238095,794.981684981685,850.5860805860806,750.6593406593407,663.6263736263736,0.045349,0.024048,1.004150,-0.336456,-1.585083,-0.164490,446446.886447,110848571.428571,37403223.443223,112.592743,1,2,1,1,2,100.000000
2568-11-17 11:23:24.171,,,,,,,,,,,,,,,,,,,,,,,,,,,,,,,,,,,,,,,,,,/muse/elements/blink
2568-11-17 11:23:24.764,0,1.084144151334526,0.9604126091812867,1.384952208996754,0,-0.01499617849774817,0.4866782481544105,0.9097067800391762,0,-0.03301305806108795,0.4234982590828261,0.6073258817445211,0,0.1353225376460863,0.8189373326338684,0.7394640337387565,0,-0.1893141176288757,0.5806653594296326,0.03923897820938534,845.7509157509157,780.4761904761905,828.021978021978,750.2564102564103,706.3369963369963,0.040466,0.024658,1.008850,-0.508423,-1.443024,0.411224,446446.886447,110852600.732601,37368571.428571,112.592743,1,2,1,1,2,100.000000
2568-11-17 11:23:25.055,,,,,,,,,,,,,,,,,,,,,,,,,,,,,,,,,,,,,,,,,,/muse/elements/blink
2568-11-17 11:23:25.752,0,0.753210119285214,1.077916137095121,1.384952208996754,0,0.5113750063302246,0.6775037913766182,0.9097067800391762,0,0.6330430749897631,0.4161147187494279,0.6073258817445211,0,0.221615258000355,0.5856322282252786,0.7394640337387565,0,-0.2263353104063303,0.409904635453371,0.03923897820938534,827.2161172161173,780.0732600732601,792.1611721611722,746.2271062271062,540.7326007326008,0.044922,0.022766,1.010620,-0.568237,-1.547699,0.231781,447252.747253,110882417.582418,37306520.146520,112.592743,1,2,1,1,2,100.000000
2568-11-17 11:23:26.373,,,,,,,,,,,,,,,,,,,,,,,,,,,,,,,,,,,,,,,,,,/muse/elements/blink
2568-11-17 11:23:26.760,0,0.8435598454595229,0.749193016979848,1.384952208996754,0,0.6856525436819965,0.3806341084165927,0.9097067800391762,0,1.27926921626463,0.5957626879855226,0.6073258817445211,0,0.2025644519399021,0.4052504580603793,0.7394640337387565,0,0.1629772414201354,0.3534840951053718,0.03923897820938534,827.6190476190476,804.2490842490843,813.5164835164835,743.4065934065934,670.0732600732601,0.049561,0.025146,1.002441,-0.545807,-1.996307,0.104675,446446.886447,110730109.890110,37248498.168498,112.592743,1,2,1,1,2,100.000000
2568-11-17 11:23:27.229,,,,,,,,,,,,,,,,,,,,,,,,,,,,,,,,,,,,,,,,,,/muse/elements/blink
2568-11-17 11:23:27.752,0,1.211293445409381,0.8746779000976792,1.384952208996754,0,1.098511594803715,0.1534658623521869,0.9097067800391762,0,1.27926921626463,0.5913364970055806,0.6073258817445211,0,0.3472031460945874,0.5052188426246652,0.7394640337387565,0,0.3276020949301357,0.4120994892774341,0.03923897820938534,811.0989010989011,809.8901098901099,807.4725274725275,739.7802197802198,716.007326007326,0.055786,0.025574,1.009033,0.014954,-1.884155,-0.231781,447252.747253,110734945.054945,37275091.575092,112.592743,1,2,1,1,2,100.000000
2568-11-17 11:23:28.304,,,,,,,,,,,,,,,,,,,,,,,,,,,,,,,,,,,,,,,,,,/muse/elements/blink
2568-11-17 11:23:28.761,0,1.264273814917497,0.8746779000976792,1.384952208996754,0,1.06115521139229,0.1534658623521869,0.9097067800391762,0,0.468313388284653,0.5913364970055806,0.6073258817445211,0,0.2917362304761929,0.5052188426246652,0.7394640337387565,0,-0.1866152016201769,0.4120994892774341,0.03923897820938534,774.0293040293041,799.0109890109891,836.0805860805862,751.8681318681319,582.6373626373627,0.049683,0.026306,1.004822,-0.598145,-1.218719,0.157013,447252.747253,110681758.241758,37367765.567766,112.592743,1,2,1,1,2,100.000000
2568-11-17 11:23:29.753,0,1.282648239983966,0.8746779000976792,1.384952208996754,0,1.024232619325553,0.1534658623521869,0.9097067800391762,0,0.6506822481619808,0.5913364970055806,0.6073258817445211,0,0.4813713873046149,0.5052188426246652,0.7394640337387565,0,0.3396941633926971,0.4120994892774341,0.03923897820938534,886.0439560439561,781.6849816849817,810.6959706959707,726.0805860805862,644.2857142857143,0.048706,0.026428,1.009949,-1.188812,-2.100983,-0.291595,446446.886447,111042783.882784,37557948.717949,112.592743,1,2,1,1,2,100.000000
2568-11-17 11:23:30.752,0,1.282648239983966,0.8746779000976792,1.384952208996754,0,1.024232619325553,0.1534658623521869,0.9097067800391762,0,0.6506822481619808,0.5913364970055806,0.6073258817445211,0,0.4813713873046149,0.5052188426246652,0.7394640337387565,0,0.3396941633926971,0.4120994892774341,0.03923897820938534,821.978021978022,791.7582417582418,812.7106227106227,712.3809523809524,666.0439560439561,0.035156,0.027893,1.007812,-0.867310,-2.736511,4.321594,449670.329670,110800219.780220,37628058.608059,112.592743,1,2,1,1,2,100.000000
2568-11-17 11:23:31.346,,,,,,,,,,,,,,,,,,,,,,,,,,,,,,,,,,,,,,,,,,/muse/elements/blink
2568-11-17 11:23:31.752,0,1.282648239983966,0.8746779000976792,1.384952208996754,0,1.024232619325553,0.1534658623521869,0.9097067800391762,0,0.6506822481619808,0.5913364970055806,0.6073258817445211,0,0.4813713873046149,0.5052188426246652,0.7394640337387565,0,0.3396941633926971,0.4120994892774341,0.03923897820938534,477.0695970695971,823.992673992674,837.6923076923077,706.3369963369963,627.3626373626374,-0.002808,0.057190,1.011414,10.190887,4.456177,-17.817230,449670.329670,110420659.340659,37564395.604396,112.592743,1,2,1,1,2,100.000000
2568-11-17 11:23:32.281,,,,,,,,,,,,,,,,,,,,,,,,,,,,,,,,,,,,,,,,,,/muse/elements/blink
2568-11-17 11:23:32.755,0,1.282648239983966,0.8746779000976792,1.384952208996754,0,1.024232619325553,0.1534658623521869,0.9097067800391762,0,0.6506822481619808,0.5913364970055806,0.6073258817445211,0,0.4813713873046149,0.5052188426246652,0.7394640337387565,0,0.3396941633926971,0.4120994892774341,0.03923897820938534,860.2564102564103,804.2490842490843,807.0695970695971,737.7655677655678,647.5091575091575,-0.128845,-0.019775,0.998230,-0.979462,-1.383209,0.433655,450476.190476,110817142.857143,37837582.417582,112.592743,1,2,1,1,2,100.000000
2568-11-17 11:23:33.755,0,0.7034607396498523,0.8746779000976792,1.384952208996754,0,0.550812365903718,0.1534658623521869,0.9097067800391762,0,0.5598834468775067,0.5913364970055806,0.6073258817445211,0,0.5244053840648336,0.5052188426246652,0.7394640337387565,0,-0.04100246371310676,0.4120994892774341,0.03923897820938534,904.1758241758242,794.981684981685,829.6336996336996,723.2600732600732,705.934065934066,-0.111694,-0.013672,1.004761,-0.306549,-1.525269,-0.052338,450476.190476,110567326.007326,37620805.860806,112.592743,1,2,1,1,2,100.000000
2568-11-17 11:23:34.712,,,,,,,,,,,,,,,,,,,,,,,,,,,,,,,,,,,,,,,,,,/muse/elements/blink
2568-11-17 11:23:34.752,0,0.6619418018375198,1.08521892635853,1.384952208996754,0,0.2084782910806134,0.24491190965996,0.9097067800391762,0,0.5666117908441158,0.5316890569860518,0.6073258817445211,0,0.5233159987827344,0.6651139307297108,0.7394640337387565,0,-0.06266902470053147,0.6507905870166321,0.03923897820938534,734.5421245421246,790.5494505494506,869.5238095238095,777.6556776556777,593.1135531135532,-0.116943,-0.010010,0.999023,-0.366364,-1.271057,0.029907,449670.329670,110564908.424908,37467692.307692,112.592743,1,2,1,1,2,100.000000
2568-11-17 11:23:35.756,0,0.4239583125703207,1.124668974939002,1.384952208996754,0,0.1046453040152544,0.4521220543199539,0.9097067800391762,0,0.2569821837397992,0.6941449638681685,0.6073258817445211,0,0.3457158092746408,0.6978119394290017,0.7394640337387565,0,6.244677497117497e-05,0.6399020515232899,0.03923897820938534,1625.421245421245,802.6373626373627,784.1025641025641,795.7875457875458,716.8131868131868,-0.103699,-0.017517,0.999329,-0.508423,-2.549591,0.119629,449670.329670,110169230.769231,37326666.666667,112.592743,1,2,1,1,2,100.000000
2568-11-17 11:23:35.944,,,,,,,,,,,,,,,,,,,,,,,,,,,,,,,,,,,,,,,,,,/muse/elements/blink
2568-11-17 11:23:36.120,,,,,,,,,,,,,,,,,,,,,,,,,,,,,,,,,,,,,,,,,,/muse/elements/blink
2568-11-17 11:23:36.752,0,1.23457360687493,1.152693566580816,1.384952208996754,0,0.778328372449748,0.5031993619994587,0.9097067800391762,0,0.2817281179664862,0.6940491411049849,0.6073258817445211,0,-0.003211668710692878,0.7060859215867675,0.7394640337387565,0,0.04197030989842092,0.6294070495131432,0.03923897820938534,1151.978021978022,795.7875457875458,790.952380952381,722.0512820512821,841.7216117216118,-0.091797,-0.015259,1.000549,0.246735,-2.407532,0.254211,450476.190476,110249816.849817,37304908.424908,112.592743,1,2,1,1,2,100.000000
2568-11-17 11:23:37.751,0,1.068979635672022,0.3410333738558169,1.384952208996754,0,0.4820516999716535,0.1182637949097206,0.9097067800391762,0,0.4628703990314585,0.6213993033576631,0.6073258817445211,0,0.1552533215362289,0.8652449978292366,0.7394640337387565,0,-0.03379807422495106,0.7135545401774875,0.03923897820938534,926.7399267399268,763.5531135531136,792.967032967033,667.6556776556777,616.8864468864469,-0.104126,-0.013428,0.997070,-0.515900,-0.964508,-0.284119,449670.329670,109999194.139194,37261391.941392,112.592743,1,2,1,1,2,100.000000
2568-11-17 11:23:38.641,,,,,,,,,,,,,,,,,,,,,,,,,,,,,,,,,,,,,,,,,,/muse/elements/blink
2568-11-17 11:23:38.761,0,0.9923149041511968,0.5143422537718227,1.384952208996754,0,0.4545006914195654,0.2813500156925925,0.9097067800391762,0,0.5108459248841657,0.5806881601348423,0.6073258817445211,0,0.2870027717617464,0.9054096727937533,0.7394640337387565,0,-0.2669439847948413,0.772247365358158,0.03923897820938534,880.8058608058608,802.2344322344322,811.0989010989011,765.1648351648352,678.9377289377289,-0.107239,-0.009033,1.004639,-0.284119,-1.203766,0.134583,449670.329670,109933113.553114,37225128.205128,112.592743,1,2,1,1,2,100.000000
2568-11-17 11:23:39.703,,,,,,,,,,,,,,,,,,,,,,,,,,,,,,,,,,,,,,,,,,/muse/elements/blink
2568-11-17 11:23:39.760,0,1.065145239654389,0.5621079395354849,1.384952208996754,0,0.613998913600125,0.3316763957838763,0.9097067800391762,0,0.4833693394873569,0.5337007286478153,0.6073258817445211,0,0.1135879903602769,0.8690838105312343,0.7394640337387565,0,-0.2394666578591292,0.7062437826931921,0.03923897820938534,885.2380952380953,796.996336996337,823.1868131868132,752.6739926739926,1200.732600732601,-0.101868,-0.012024,1.000549,-0.306549,-1.839294,0.485992,449670.329670,109863003.663004,37185641.025641,112.592743,1,2,1,1,2,100.000000
2568-11-17 11:23:40.752,0,1.021069177200877,0.5621079395354849,1.384952208996754,0,0.2912021378733038,0.3316763957838763,0.9097067800391762,0,0.3808878788403099,0.5337007286478153,0.6073258817445211,0,0.2671630023076462,0.8690838105312343,0.7394640337387565,0,-0.098574551871736,0.7062437826931921,0.03923897820938534,849.3772893772895,785.3113553113553,789.7435897435897,777.6556776556777,554.0293040293041,-0.104858,-0.011780,1.002197,-0.119629,-1.592560,0.119629,448864.468864,109746153.846154,37183223.443223,112.592743,1,2,1,1,2,100.000000
2568-11-17 11:23:41.752,0,0.7700383115888761,0.9422005030710994,1.384952208996754,0,0.2268398393387329,0.772129850378896,0.9097067800391762,0,0.2542243537977603,0.698153543190991,0.6073258817445211,0,0.3149567342316908,0.4399089949023742,0.7394640337387565,0,-0.0396155430020733,0.1426184002378864,0.03923897820938534,972.6739926739928,810.6959706959707,816.3369963369963,794.5787545787546,592.3076923076924,-0.091736,-0.008240,1.003418,-0.411224,-0.171967,0.014954,449670.329670,109420586.080586,37135677.655678,112.592743,1,2,1,1,2,100.000000
2568-11-17 11:23:41.833,,,,,,,,,,,,,,,,,,,,,,,,,,,,,,,,,,,,,,,,,,/muse/elements/blink
2568-11-17 11:23:42.540,,,,,,,,,,,,,,,,,,,,,,,,,,,,,,,,,,,,,,,,,,/muse/elements/blink
2568-11-17 11:23:42.752,0,0.8663887496975117,0.9247805461904497,1.384952208996754,0,0.3209382653940586,0.4251970518659464,0.9097067800391762,0,0.191250628574197,0.5476036041675446,0.6073258817445211,0,0.2886086560856179,0.4037909030946543,0.7394640337387565,0,-0.06063856582200217,0.1519215956699876,0.03923897820938534,771.6117216117216,778.4615384615385,829.6336996336996,616.080586080586,765.5677655677656,-0.090759,-0.006165,1.007080,-0.553284,-2.056122,0.254211,449670.329670,109349670.329670,37214652.014652,112.592743,1,2,1,1,2,100.000000
2568-11-17 11:23:43.752,0,0.8663887496975117,0.9247805461904497,1.384952208996754,0,0.3209382653940586,0.4251970518659464,0.9097067800391762,0,0.191250628574197,0.5476036041675446,0.6073258817445211,0,0.2886086560856179,0.4037909030946543,0.7394640337387565,0,-0.06063856582200217,0.1519215956699876,0.03923897820938534,728.901098901099,783.2967032967033,863.0769230769231,581.025641025641,545.1648351648352,-0.088806,-0.004822,1.000671,-0.448608,-1.233673,0.044861,448864.468864,109098241.758242,37117948.717949,112.592743,1,2,1,1,2,100.000000
2568-11-17 11:23:43.962,,,,,,,,,,,,,,,,,,,,,,,,,,,,,,,,,,,,,,,,,,/muse/elements/blink
2568-11-17 11:23:44.754,0,0.9790456177750229,0.9247805461904497,1.384952208996754,0,0.588451306630421,0.4251970518659464,0.9097067800391762,0,0.266377504291394,0.5476036041675446,0.6073258817445211,0,0.04135357068075847,0.4037909030946543,0.7394640337387565,0,-0.06810144458546308,0.1519215956699876,0.03923897820938534,803.040293040293,778.8644688644689,849.3772893772895,743.0036630036631,630.989010989011,-0.082458,0.000305,1.003113,-0.381317,-1.076660,0.112152,448864.468864,108968498.168498,37115531.135531,112.592743,1,2,1,1,2,100.000000
2568-11-17 11:23:44.981,,,,,,,,,,,,,,,,,,,,,,,,,,,,,,,,,,,,,,,,,,/muse/elements/blink
2568-11-17 11:23:45.767,0,1.002629552915222,0.9247805461904497,1.384952208996754,0,0.4593490509324661,0.4251970518659464,0.9097067800391762,0,0.3537266037047787,0.5476036041675446,0.6073258817445211,0,0.03295931622014996,0.4037909030946543,0.7394640337387565,0,-0.107273087469588,0.1519215956699876,0.03923897820938534,794.1758241758242,800.2197802197802,822.3809523809524,716.8131868131868,828.4249084249085,-0.088013,-0.002197,1.010254,-0.545807,-1.532745,0.194397,450476.190476,108945128.205128,37133260.073260,112.592743,1,2,1,1,2,100.000000
2568-11-17 11:23:46.752,0,0.8757975816851793,0.8227731870019056,1.384952208996754,0,0.2652072750167913,0.0946509247719291,0.9097067800391762,0,0.4730602707941407,0.7442784210163973,0.6073258817445211,0,0.211685993782976,0.7381024817493326,0.7394640337387565,0,-0.2838396964034036,0.598698923276154,0.03923897820938534,803.040293040293,813.5164835164835,781.2820512820513,783.6996336996338,684.981684981685,-0.088135,-0.001892,1.001099,-0.052338,-1.712189,0.112152,448864.468864,108936263.736264,37148571.428571,112.592743,1,2,1,1,2,100.000000
2568-11-17 11:23:47.428,,,,,,,,,,,,,,,,,,,,,,,,,,,,,,,,,,,,,,,,,,/muse/elements/blink
2568-11-17 11:23:47.753,1.322714843840197,0.6506130680626576,0.7151825031073709,1.384952208996754,1.113477696366908,0.2512849656339216,0.4445556236435752,0.9097067800391762,0.8232726927925267,0.5143554993700384,0.8999102772880577,0.6073258817445211,0.5306706847844442,0.2456443539218265,0.6932551691483217,0.7394640337387565,0.05922701303829143,-0.1772228168055788,0.5657099488763103,0.03923897820938534,839.7069597069598,810.2930402930403,791.3553113553114,800.6227106227107,590.6959706959707,-0.079834,0.002686,1.001526,-0.284119,-1.465454,0.530853,450476.190476,108950769.230769,37204175.824176,112.592743,1,1,1,1,1,100.000000
2568-11-17 11:23:47.785,,,,,,,,,,,,,,,,,,,,,,,,,,,,,,,,,,,,,,,,,,/muse/elements/blink
2568-11-17 11:23:48.317,,,,,,,,,,,,,,,,,,,,,,,,,,,,,,,,,,,,,,,,,,/muse/elements/blink
2568-11-17 11:23:48.752,1.274330906908717,1.14536865824743,0.6976162469512313,1.384952208996754,1.011272470418971,0.8429760411229255,0.7045802440043484,0.9097067800391762,0.794249942962534,0.3537853321719365,0.833261534427259,0.6073258817445211,0.5022311983087742,0.3415214755855682,0.4819336363095768,0.7394640337387565,0.0494164978242838,-0.01033287121510197,0.3576296177806252,0.03923897820938534,780.0732600732601,799.4139194139194,814.7252747252747,753.4798534798535,632.6007326007326,-0.083008,-0.009155,1.002380,-0.411224,-1.652374,-0.702820,448864.468864,108961245.421245,37273479.853480,112.592743,1,1,1,1,1,100.000000
2568-11-17 11:23:49.752,1.274330906908717,0.910398694001211,0.6976162469512313,1.384952208996754,1.011272470418971,0.4860778268815683,0.7045802440043484,0.9097067800391762,0.794249942962534,0.4744949571754908,0.833261534427259,0.6073258817445211,0.5022311983087742,0.3986277889826233,0.4819336363095768,0.7394640337387565,0.0494164978242838,0.06689223380663288,0.3576296177806252,0.03923897820938534,788.9377289377289,782.4908424908425,824.3956043956044,753.4798534798535,629.3772893772893,-0.069580,0.007141,1.006714,-0.366364,-1.435547,0.179443,449670.329670,108586520.146520,37196923.076923,112.592743,1,1,1,1,1,100.000000
2568-11-17 11:23:50.752,0.8343483671134143,0.8825341146418801,0.6976162469512313,0.7833028079332987,0.4277789195323166,0.3558401285396232,0.7045802440043484,0.5803404788540901,0.7403838284586076,0.7358205846566086,0.833261534427259,0.6522233429345236,0.6938391069932092,0.5599993799506571,0.4819336363095768,0.640487771095883,0.07483677546436608,0.1202966169614561,0.3576296177806252,0.1434652460132833,771.2087912087912,789.3406593406594,793.7728937728938,747.032967032967,591.9047619047619,-0.068115,0.006470,1.010986,-0.284119,-1.480408,0.209351,451282.051282,108575238.095238,37328278.388278,112.592743,1,1,1,1,1,100.000000
2568-11-17 11:23:51.093,,,,,,,,,,,,,,,,,,,,,,,,,,,,,,,,,,,,,,,,,,/muse/elements/blink
2568-11-17 11:23:51.585,,,,,,,,,,,,,,,,,,,,,,,,,,,,,,,,,,,,,,,,,,/muse/elements/blink
2568-11-17 11:23:51.752,0.8612362349479209,1.218353526943265,0.9212532027133253,0.7516584132973647,0.3805340812545088,0.6956652856920323,0.8864956935077323,0.5275975419220413,0.7109338151193996,0.7213797008923281,0.6043945901263713,0.5193806664863854,0.6716532489995072,0.6476396329227074,0.6024025237827008,0.7196556471342144,0.04280042335700643,0.06781116404082514,0.5379320264658781,0.1357561040204136,746.2271062271062,832.0512820512821,827.2161172161173,737.7655677655678,623.3333333333334,-0.061401,0.008362,1.009644,-0.059814,-1.405640,0.269165,450476.190476,108636483.516484,37332307.692308,112.592743,1,1,1,1,1,100.000000
2568-11-17 11:23:51.960,,,,,,,,,,,,,,,,,,,,,,,,,,,,,,,,,,,,,,,,,,/muse/elements/blink
2568-11-17 11:23:52.379,,,,,,,,,,,,,,,,,,,,,,,,,,,,,,,,,,,,,,,,,,/muse/elements/blink
2568-11-17 11:23:52.752,0.8612362349479209,1.218353526943265,0.8157270864002242,0.7516584132973647,0.3805340812545088,0.6956652856920323,0.9115549022720499,0.5275975419220413,0.7109338151193996,0.7213797008923281,0.6041574205269314,0.5193806664863854,0.6716532489995072,0.6476396329227074,0.3907427670955375,0.7196556471342144,0.04280042335700643,0.06781116404082514,0.5597532819545614,0.1357561040204136,703.5164835164835,778.0586080586081,799.4139194139194,682.1611721611722,541.5384615384615,-0.068604,0.000977,1.003540,-0.530853,-1.031799,-0.269165,450476.190476,108376996.336996,37231575.091575,112.592743,1,1,1,1,1,100.000000
2568-11-17 11:23:52.998,,,,,,,,,,,,,,,,,,,,,,,,,,,,,,,,,,,,,,,,,,/muse/elements/blink
2568-11-17 11:23:53.761,0.8612362349479209,1.344051065117602,0.5038577161510334,0.7516584132973647,0.3805340812545088,0.7453680108340232,0.3221028033276433,0.5275975419220413,0.7109338151193996,0.4267865116493635,0.8097697647331695,0.5193806664863854,0.6716532489995072,0.217395133782994,0.8602098651830327,0.7196556471342144,0.04280042335700643,-0.2286011756334717,0.5708426630476704,0.1357561040204136,762.7472527472528,815.934065934066,782.893772893773,747.4358974358975,663.6263736263736,-0.071289,0.006348,1.006165,-0.545807,-1.652374,0.134583,452087.912088,108395531.135531,37358095.238095,112.592743,1,2,1,1,2,100.000000
2568-11-17 11:23:54.211,,,,,,,,,,,,,,,,,,,,,,,,,,,,,,,,,,,,,,,,,,/muse/elements/blink
2568-11-17 11:23:54.752,0.8612362349479209,1.036112266562825,0.5344364941399428,0.7516584132973647,0.3805340812545088,0.5570109454134436,0.3332579464892249,0.5275975419220413,0.7109338151193996,0.5874321847532787,0.5610567271999299,0.5193806664863854,0.6716532489995072,0.4343398640845089,0.8671444573681715,0.7196556471342144,0.04280042335700643,-0.04706454206190589,0.7139211144312552,0.1357561040204136,749.8534798534798,802.6373626373627,837.2893772893773,731.3186813186813,625.7509157509157,-0.074341,0.004150,1.005798,-0.246735,-1.876678,0.493469,452087.912088,109049890.109890,37661098.901099,112.592743,1,2,1,1,2,100.000000
2568-11-17 11:23:55.752,0.8612362349479209,0.5541234205370423,0.5887513678006691,0.7516584132973647,0.3805340812545088,0.0388142197013179,0.3903775374803649,0.5275975419220413,0.7109338151193996,0.5387719999743783,0.4962992997919958,0.5193806664863854,0.6716532489995072,0.5484345888042188,0.7604123450504552,0.7196556471342144,0.04280042335700643,0.2316151682966714,0.7982918576441872,0.1357561040204136,830.8424908424909,802.6373626373627,834.4688644688645,734.9450549450549,601.5750915750916,-0.067749,0.005188,1.007629,-0.553284,-1.607513,-0.463562,451282.051282,108962857.142857,37595018.315018,112.592743,1,2,1,1,2,100.000000
2568-11-17 11:23:56.742,,,,,,,,,,,,,,,,,,,,,,,,,,,,,,,,,,,,,,,,,,/muse/elements/blink
2568-11-17 11:23:56.756,0.8612362349479209,0.2526775550658659,0.5887513678006691,0.7516584132973647,0.3805340812545088,0.1496356779858969,0.3903775374803649,0.5275975419220413,0.7109338151193996,0.5238463819656994,0.4962992997919958,0.5193806664863854,0.6716532489995072,0.4363903704379381,0.7604123450504552,0.7196556471342144,0.04280042335700643,0.4209050191064121,0.7982918576441872,0.1357561040204136,936.4102564102565,811.5018315018315,847.7655677655678,797.3992673992674,604.3956043956044,-0.046509,0.007202,1.017212,-0.897217,-5.054321,-0.044861,450476.190476,108993479.853480,37494285.714286,112.592743,1,2,1,1,2,100.000000
2568-11-17 11:23:57.074,,,,,,,,,,,,,,,,,,,,,,,,,,,,,,,,,,,,,,,,,,/muse/elements/blink
2568-11-17 11:23:57.752,0.8612362349479209,0.2803940930022349,1.273351549816065,0.7516584132973647,0.3805340812545088,0.5942250910146096,1.045832191855268,0.5275975419220413,0.7109338151193996,1.224346365354738,0.7445693325044542,0.5193806664863854,0.6716532489995072,0.5695706625098703,0.8616655162656387,0.7196556471342144,0.04280042335700643,0.4919624276287906,0.6380859096511613,0.1357561040204136,802.6373626373627,809.0842490842491,817.948717948718,738.5714285714286,620.5128205128206,-0.055115,0.003662,1.010498,-1.390686,-1.271057,1.039276,452087.912088,109028131.868132,37586959.706960,112.592743,1,2,1,1,2,100.000000
2568-11-17 11:23:58.381,,,,,,,,,,,,,,,,,,,,,,,,,,,,,,,,,,,,,,,,,,/muse/elements/blink
2568-11-17 11:23:58.752,0.8612362349479209,0.7956931997756357,1.273351549816065,0.7516584132973647,0.3805340812545088,0.6538402646870792,1.045832191855268,0.5275975419220413,0.7109338151193996,1.224346365354738,0.7445693325044542,0.5193806664863854,0.6716532489995072,0.5873655943460808,0.8616655162656387,0.7196556471342144,0.04280042335700643,-0.01317658888505414,0.6380859096511613,0.1357561040204136,781.2820512820513,806.6666666666667,802.2344322344322,717.6190476190476,680.1465201465202,-0.057983,0.004578,1.000977,0.059814,-1.876678,0.366364,451282.051282,109015238.095238,37528131.868132,112.592743,1,2,1,1,2,100.000000
2568-11-17 11:23:59.083,,,,,,,,,,,,,,,,,,,,,,,,,,,,,,,,,,,,,,,,,,/muse/elements/blink
2568-11-17 11:23:59.756,0.8612362349479209,0.8752449913774578,0.4510686146643391,0.7516584132973647,0.3805340812545088,0.08717647570626234,0.03507752173137262,0.5275975419220413,0.7109338151193996,0.5103177403041382,0.6594576650806148,0.5193806664863854,0.6716532489995072,0.4718353900107016,0.8606070280417037,0.7196556471342144,0.04280042335700643,-0.1882043420292179,0.764048476382618,0.1357561040204136,780.4761904761905,806.6666666666667,793.7728937728938,693.4432234432235,616.080586080586,-0.062073,0.006470,1.002258,-0.650482,-0.785065,-0.059814,451282.051282,108659047.619048,37350842.490842,112.592743,1,2,1,1,2,100.000000
2568-11-17 11:24:00.751,0.8612362349479209,0.9315869872435185,0.5418205589269917,0.7516584132973647,0.3805340812545088,0.2153381560881905,0.159447617542063,0.5275975419220413,0.7109338151193996,0.6081676057216335,0.602065645478469,0.5193806664863854,0.6716532489995072,0.4863828703729892,0.7258250750062099,0.7196556471342144,0.04280042335700643,-0.1544880503316412,0.5798186236060051,0.1357561040204136,807.0695970695971,811.9047619047619,816.3369963369963,715.2014652014652,890.0732600732601,-0.061951,0.004944,1.008484,-0.269165,-1.891632,-0.052338,451282.051282,108542197.802198,37352454.212454,112.592743,1,2,1,1,2,100.000000
2568-11-17 11:24:01.755,0.8612362349479209,1.098101962996607,0.6070519364806092,0.7516584132973647,0.3805340812545088,0.7803472978970053,0.1808709583351193,0.5275975419220413,0.7109338151193996,0.4302991995586838,0.5702401768377633,0.5193806664863854,0.6716532489995072,0.1899658838835216,0.6662504549714336,0.7196556471342144,0.04280042335700643,0.05590999144008686,0.4536213118831938,0.1357561040204136,777.6556776556777,839.7069597069598,801.4285714285714,698.2783882783883,809.4871794871796,-0.056580,0.005188,1.007751,-0.575714,-1.248627,-0.000000,451282.051282,108509963.369963,37424175.824176,112.592743,1,2,1,1,2,100.000000
2568-11-17 11:24:02.757,0.8612362349479209,1.218801964013915,0.6070519364806092,0.7516584132973647,0.3805340812545088,0.805022084229459,0.1808709583351193,0.5275975419220413,0.7109338151193996,0.4280793331233012,0.5702401768377633,0.5193806664863854,0.6716532489995072,0.1966916273312419,0.6662504549714336,0.7196556471342144,0.04280042335700643,0.02216256569932909,0.4536213118831938,0.1357561040204136,774.8351648351648,802.2344322344322,803.4432234432235,608.021978021978,792.1611721611722,-0.054382,0.004028,1.007690,-0.403748,-1.151428,-0.433655,451282.051282,108588937.728938,37353260.073260,112.592743,1,2,1,1,2,100.000000
2568-11-17 11:24:03.761,1.751631731654329,1.02859538923278,0.6070519364806092,0.7516584132973647,1.63268288678485,0.4407712039627346,0.1808709583351193,0.5275975419220413,1.312376881412082,0.1587992046948845,0.5702401768377633,0.5193806664863854,0.6722408299555465,0.2181846104598675,0.6662504549714336,0.7196556471342144,0.02504812245778243,-0.1286654871000827,0.4536213118831938,0.1357561040204136,770.4029304029305,768.7912087912088,782.0879120879121,642.2710622710623,541.5384615384615,-0.052429,0.005188,0.998413,-0.082245,-1.390686,-0.396271,452087.912088,108671941.391941,37402417.582418,112.592743,1,1,1,1,1,100.000000
2568-11-17 11:24:04.752,1.717469811016583,1.02859538923278,0.991813999823583,0.7516584132973647,1.566244735443431,0.4407712039627346,0.7297974598038011,0.5275975419220413,1.312376881412082,0.1587992046948845,0.6837848054644938,0.5193806664863854,0.7438127716279013,0.2181846104598675,0.7556817884811955,0.7196556471342144,0.1743569325503732,-0.1286654871000827,0.4443542607793659,0.1357561040204136,765.5677655677656,794.5787545787546,798.2051282051282,682.1611721611722,689.0109890109891,-0.050110,0.000671,1.005249,-0.717773,-1.166382,-0.142059,450476.190476,108862124.542125,37350842.490842,112.592743,1,1,1,1,1,100.000000
2568-11-17 11:24:05.707,,,,,,,,,,,,,,,,,,,,,,,,,,,,,,,,,,,,,,,,,,/muse/elements/blink
2568-11-17 11:24:05.752,1.048796557248104,0.863483824277388,0.08183314378175024,0.7516584132973647,0.6408023802608204,0.123746438675056,0.09830024621487006,0.5275975419220413,0.4383988446584662,0.3242707080711235,0.2965516812872597,0.5193806664863854,0.6731057550230409,0.2370257159073936,0.6685444159540632,0.7196556471342144,0.1649014963630529,-0.3152382186865943,0.4965668940018405,0.1357561040204136,820.7692307692308,808.2783882783883,847.7655677655678,731.7216117216118,610.4395604395604,-0.044800,0.010132,1.016418,-1.271057,-2.100983,1.697235,450476.190476,108941904.761905,37372600.732601,112.592743,1,1,1,1,1,100.000000
2568-11-17 11:24:06.509,,,,,,,,,,,,,,,,,,,,,,,,,,,,,,,,,,,,,,,,,,/muse/elements/blink
2568-11-17 11:24:06.755,1.048796557248104,1.085401459380707,0.1619572504076743,0.7516584132973647,0.6408023802608204,0.01469122647522289,-0.02800641321944072,0.5275975419220413,0.4383988446584662,0.08593317863448476,0.2560233735363192,0.5193806664863854,0.6731057550230409,0.2792864852708671,0.7077467386991875,0.7196556471342144,0.1649014963630529,-0.238538046555014,0.4647326706813793,0.1357561040204136,769.1941391941392,807.0695970695971,800.2197802197802,827.6190476190476,668.4615384615385,-0.046875,-0.000977,0.997864,0.568237,-1.577606,-1.816864,450476.190476,108427765.567766,37268644.688645,112.592743,1,1,1,1,1,100.000000
2568-11-17 11:24:07.088,,,,,,,,,,,,,,,,,,,,,,,,,,,,,,,,,,,,,,,,,,/muse/elements/blink
2568-11-17 11:24:07.752,1.048796557248104,1.085401459380707,0.1619572504076743,0.7516584132973647,0.6408023802608204,0.01469122647522289,-0.02800641321944072,0.5275975419220413,0.4383988446584662,0.08593317863448476,0.2560233735363192,0.5193806664863854,0.6731057550230409,0.2792864852708671,0.7077467386991875,0.7196556471342144,0.1649014963630529,-0.238538046555014,0.4647326706813793,0.1357561040204136,814.3223443223443,800.2197802197802,832.0512820512821,720.4395604395604,657.1794871794872,-0.046875,0.009216,1.008301,0.194397,-1.398163,0.261688,450476.190476,108242417.582418,37219487.179487,112.592743,1,2,1,1,2,100.000000
2568-11-17 11:24:07.907,,,,,,,,,,,,,,,,,,,,,,,,,,,,,,,,,,,,,,,,,,/muse/elements/blink
2568-11-17 11:24:08.762,1.048796557248104,1.085401459380707,0.4004390671540374,0.7516584132973647,0.6408023802608204,0.01469122647522289,0.2810784376635547,0.5275975419220413,0.4383988446584662,0.08593317863448476,0.4697491400605599,0.5193806664863854,0.6731057550230409,0.2792864852708671,0.7608155163342696,0.7196556471342144,0.1649014963630529,-0.238538046555014,0.6531357990504398,0.1357561040204136,777.6556776556777,797.8021978021978,817.5457875457876,676.1172161172161,694.2490842490843,-0.045654,0.006226,1.008423,-0.351410,-1.570129,-0.082245,450476.190476,108095750.915751,37194505.494505,112.592743,1,2,1,1,2,100.000000
2568-11-17 11:24:09.752,1.048796557248104,1.133874862619366,0.6584265924583739,0.7516584132973647,0.6408023802608204,-0.004842512814472416,0.2073304975451473,0.5275975419220413,0.4383988446584662,0.08835098905256059,0.9244451995615883,0.5193806664863854,0.6731057550230409,0.1741910091885471,0.7354523874791986,0.7196556471342144,0.1649014963630529,-0.1586467375910565,0.5228577396151314,0.1357561040204136,654.3589743589744,782.893772893773,799.4139194139194,596.3369963369963,649.5238095238095,-0.047791,0.004028,1.009766,-0.396271,-1.330872,-0.381317,449670.329670,107936190.476190,37167912.087912,112.592743,1,2,1,1,2,100.000000
2568-11-17 11:24:09.975,,,,,,,,,,,,,,,,,,,,,,,,,,,,,,,,,,,,,,,,,,/muse/elements/blink
2568-11-17 11:24:10.480,,,,,,,,,,,,,,,,,,,,,,,,,,,,,,,,,,,,,,,,,,/muse/elements/blink
2568-11-17 11:24:10.768,1.048796557248104,1.028300262370252,0.8004777974810708,0.7516584132973647,0.6408023802608204,0.2221037465081039,-0.03238027618852118,0.5275975419220413,0.4383988446584662,0.2874714733193859,0.9126892881899481,0.5193806664863854,0.6731057550230409,0.1407287039629724,0.8164304605360295,0.7196556471342144,0.1649014963630529,-0.4562954541087747,0.624121444881431,0.1357561040204136,766.3736263736264,802.2344322344322,826.4102564102565,767.1794871794872,630.989010989011,-0.052734,0.002930,1.002441,-0.478516,-1.084137,0.194397,448864.468864,107746813.186813,37121172.161172,112.592743,1,2,1,1,2,100.000000
2568-11-17 11:24:11.281,,,,,,,,,,,,,,,,,,,,,,,,,,,,,,,,,,,,,,,,,,/muse/elements/blink
2568-11-17 11:24:11.761,1.048796557248104,0.2254198792019794,0.8004777974810708,0.7516584132973647,0.6408023802608204,0.374384169082913,-0.03238027618852118,0.5275975419220413,0.4383988446584662,0.1657024201616217,0.9126892881899481,0.5193806664863854,0.6731057550230409,0.1691052430198245,0.8164304605360295,0.7196556471342144,0.1649014963630529,-0.4923190183627177,0.624121444881431,0.1357561040204136,632.6007326007326,781.6849816849817,812.7106227106227,622.1245421245421,617.6923076923077,-0.051758,0.003662,1.005737,-0.441132,-1.158905,0.373840,449670.329670,107729084.249084,37172747.252747,112.592743,1,2,1,1,2,100.000000
2568-11-17 11:24:11.988,,,,,,,,,,,,,,,,,,,,,,,,,,,,,,,,,,,,,,,,,,/muse/elements/blink
2568-11-17 11:24:12.752,1.048796557248104,0.9681183140912986,0.4542757961872699,0.7516584132973647,0.6408023802608204,0.3346503563257666,0.1285126167224027,0.5275975419220413,0.4383988446584662,-0.0001492315951256457,0.4584456734241019,0.5193806664863854,0.6731057550230409,0.181689542372519,0.6908685132293644,0.7196556471342144,0.1649014963630529,-0.2462981672010942,0.6865740364766705,0.1357561040204136,782.893772893773,794.981684981685,814.7252747252747,724.0659340659341,697.4725274725275,-0.046631,0.004883,1.002075,0.164490,-1.891632,0.112152,448864.468864,107714578.754579,37153406.593407,112.592743,1,2,1,1,2,100.000000
2568-11-17 11:24:13.752,1.048796557248104,0.9946125222834837,0.5158225943853161,0.7516584132973647,0.6408023802608204,0.3462224121965722,0.2705573234395243,0.5275975419220413,0.4383988446584662,0.5969756151789869,0.3807244829753756,0.5193806664863854,0.6731057550230409,0.2491759522535481,0.6970228274753598,0.7196556471342144,0.1649014963630529,-0.1233814671934543,0.6582817553424346,0.1357561040204136,745.8241758241759,799.8168498168499,797.8021978021978,703.1135531135532,608.8278388278388,-0.048706,0.002930,1.009583,-0.583191,-1.308441,0.343933,448058.608059,107587252.747253,37163882.783883,112.592743,1,2,1,1,2,100.000000
2568-11-17 11:24:14.762,1.048796557248104,0.7721612354113879,0.611625326744099,0.7516584132973647,0.6408023802608204,0.4977820424839839,0.3880788428250102,0.5275975419220413,0.4383988446584662,0.5753490017357675,0.2737867640611593,0.5193806664863854,0.6731057550230409,0.2686476027675493,0.8245347579749445,0.7196556471342144,0.1649014963630529,-0.2597097227212422,0.635161976086464,0.1357561040204136,850.1831501831502,955.7509157509157,840.1098901098901,740.1831501831502,603.992673992674,-0.050049,0.002075,1.011780,0.037384,-1.443024,0.373840,450476.190476,107683956.043956,37163882.783883,112.592743,1,2,1,1,2,100.000000
2568-11-17 11:24:15.752,1.048796557248104,0.889599571606756,0.611625326744099,0.7516584132973647,0.6408023802608204,0.6554523499509974,0.3880788428250102,0.5275975419220413,0.4383988446584662,0.5037727189950012,0.2737867640611593,0.5193806664863854,0.6731057550230409,0.3533337283946709,0.8245347579749445,0.7196556471342144,0.1649014963630529,-0.2527495318517854,0.635161976086464,0.1357561040204136,503.2600732600733,798.6080586080586,797.3992673992674,695.0549450549451,766.3736263736264,-0.055298,0.004089,1.004639,-0.717773,-0.882263,0.336456,450476.190476,107476043.956044,37150183.150183,112.592743,1,2,1,1,2,100.000000
2568-11-17 11:24:16.764,1.048796557248104,0.272754043751919,0.4133059433108879,0.7516584132973647,0.6408023802608204,-0.5450259843966274,0.01932163834183497,0.5275975419220413,0.4383988446584662,-0.3207810459373681,0.06033333503806854,0.5193806664863854,0.6731057550230409,-0.0001510538340847217,0.5813766298152636,0.7196556471342144,0.1649014963630529,-0.4515308832967844,0.1661198409831242,0.1357561040204136,971.8681318681319,824.7985347985348,794.981684981685,662.014652014652,669.2673992673992,-0.044189,0.006042,1.006897,-0.553284,-1.547699,0.351410,451282.051282,107347912.087912,37130036.630037,112.592743,1,2,1,1,2,100.000000
2568-11-17 11:24:16.947,,,,,,,,,,,,,,,,,,,,,,,,,,,,,,,,,,,,,,,,,,/muse/elements/blink
2568-11-17 11:24:17.563,,,,,,,,,,,,,,,,,,,,,,,,,,,,,,,,,,,,,,,,,,/muse/elements/blink
2568-11-17 11:24:17.756,1.048796557248104,0.4290424450791994,0.6683500953363465,0.7516584132973647,0.6408023802608204,-0.5773339375443117,0.4688119267049169,0.5275975419220413,0.4383988446584662,-0.2183357198957516,0.3070374451563708,0.5193806664863854,0.6731057550230409,0.01118739924574846,0.5546229101850867,0.7196556471342144,0.1649014963630529,-0.4251750433897419,0.1926404720906386,0.1357561040204136,601.1721611721612,812.7106227106227,778.8644688644689,663.2234432234433,674.1025641025641,-0.050476,0.004028,1.008057,-0.441132,-1.345825,-0.186920,449670.329670,107259267.399267,37150183.150183,112.592743,1,2,1,1,2,100.000000
2568-11-17 11:24:18.407,,,,,,,,,,,,,,,,,,,,,,,,,,,,,,,,,,,,,,,,,,/muse/elements/blink
2568-11-17 11:24:18.752,1.048796557248104,0.902160493565024,0.5865251067551533,0.7516584132973647,0.6408023802608204,-0.05096872936787285,0.5141185205294595,0.5275975419220413,0.4383988446584662,0.2910893542698754,0.3736478305199725,0.5193806664863854,0.6731057550230409,0.2076305985480229,0.4709293273370178,0.7196556471342144,0.1649014963630529,0.1536063523584631,0.2335411937607194,0.1357561040204136,644.6886446886447,795.7875457875458,788.1318681318681,744.6153846153846,917.0695970695971,-0.048096,0.003174,1.008972,-0.882263,-2.265472,0.396271,449670.329670,107106959.706960,37153406.593407,112.592743,1,2,1,1,2,100.000000
2568-11-17 11:24:18.782,,,,,,,,,,,,,,,,,,,,,,,,,,,,,,,,,,,,,,,,,,/muse/elements/blink
2568-11-17 11:24:19.465,,,,,,,,,,,,,,,,,,,,,,,,,,,,,,,,,,,,,,,,,,/muse/elements/blink
2568-11-17 11:24:19.765,1.048796557248104,0.902160493565024,0.4813270526295882,0.7516584132973647,0.6408023802608204,-0.05096872936787285,0.1296976523150334,0.5275975419220413,0.4383988446584662,0.2910893542698754,0.3322492014668207,0.5193806664863854,0.6731057550230409,0.2076305985480229,0.4187116810998378,0.7196556471342144,0.1649014963630529,0.1536063523584631,0.2388440225758456,0.1357561040204136,820.7692307692308,803.040293040293,807.8754578754579,825.6043956043957,487.948717948718,-0.045227,0.011841,1.014648,0.127106,-1.099091,0.613098,450476.190476,107086813.186813,37180805.860806,112.592743,1,2,1,1,2,100.000000
2568-11-17 11:24:20.752,1.048796557248104,0.8482870656362791,0.4813270526295882,0.7516584132973647,0.6408023802608204,0.3309141093782804,0.1296976523150334,0.5275975419220413,0.4383988446584662,0.2986958018296235,0.3322492014668207,0.5193806664863854,0.6731057550230409,0.2903025524163183,0.4187116810998378,0.7196556471342144,0.1649014963630529,-0.0110905081945296,0.2388440225758456,0.1357561040204136,947.6923076923077,797.3992673992674,822.3809523809524,824.3956043956044,738.974358974359,-0.045715,0.001099,1.007568,-0.351410,-1.330872,-0.014954,450476.190476,107172234.432234,37225128.205128,112.592743,1,2,1,1,2,100.000000
2568-11-17 11:24:21.755,1.048796557248104,0.8810424990346558,1.001873532885134,0.7516584132973647,0.6408023802608204,0.2095985802741969,0.6746182195534642,0.5275975419220413,0.4383988446584662,0.6426268385402923,0.8802690101208204,0.5193806664863854,0.6731057550230409,0.3533438933699094,0.6244639332339738,0.7196556471342144,0.1649014963630529,-0.09750331808609405,0.3618604169543956,0.1357561040204136,844.1391941391942,792.967032967033,822.3809523809524,666.8498168498169,938.021978021978,-0.042419,0.000305,1.004883,-0.314026,-1.181335,0.082245,451282.051282,107182710.622711,37275091.575092,112.592743,1,2,1,1,2,100.000000
2568-11-17 11:24:22.761,1.048796557248104,0.993607959156689,1.087123365326668,0.7516584132973647,0.6408023802608204,0.7234873491245367,0.7842211020828526,0.5275975419220413,0.4383988446584662,0.9897998834598373,0.8807921744266913,0.5193806664863854,0.6731057550230409,0.4424350738892965,0.5793397684632381,0.7196556471342144,0.1649014963630529,0.1195166737668187,0.4443903304702124,0.1357561040204136,812.3076923076924,814.7252747252747,802.6373626373627,827.2161172161173,606.8131868131868,-0.048157,0.006653,1.013489,-0.747681,-1.241150,1.181335,450476.190476,107324542.124542,37294432.234432,112.592743,1,2,1,1,2,100.000000
2568-11-17 11:24:23.752,1.048796557248104,0.6666998082396658,0.7477423023993,0.7516584132973647,0.6408023802608204,0.3907302117864616,0.6446596400431127,0.5275975419220413,0.4383988446584662,0.8709934053315583,0.6577248183146848,0.5193806664863854,0.6731057550230409,0.3717993680298979,0.6679939484636864,0.7196556471342144,0.1649014963630529,0.2014514168847623,0.4556756948238428,0.1357561040204136,807.8754578754579,802.2344322344322,799.4139194139194,822.3809523809524,711.978021978022,-0.045227,0.007507,1.016174,-0.000000,-1.383209,0.411224,451282.051282,107127912.087912,37279120.879121,112.592743,1,2,1,1,2,100.000000
2568-11-17 11:24:24.752,1.117650298874934,0.4164589494598254,0.1461789758559755,0.7516584132973647,0.6299767439078248,0.2533158366736099,0.229417509074542,0.5275975419220413,1.017945634025694,0.5476980010244631,0.6306011348376803,0.5193806664863854,0.4319531171527956,0.2948642445126781,0.6989247919004467,0.7196556471342144,-0.0565684709340857,0.1066056916305163,0.426938276484969,0.1357561040204136,781.2820512820513,808.6813186813187,809.8901098901099,773.2234432234433,812.3076923076924,-0.040344,0.016846,1.007446,-0.426178,-1.001892,0.164490,451282.051282,107190769.230769,37302490.842491,112.592743,1,1,1,1,1,100.000000
2568-11-17 11:24:25.752,0.9785708337801372,0.2688492501648699,0.3136668966220545,0.7516584132973647,0.8623723826235096,0.1736640714323906,-0.09846400758752204,0.5275975419220413,1.170132104590825,0.2416706498417976,0.4543251611355796,0.5193806664863854,0.6990949826194642,0.3648582227360929,0.8635046795498283,0.7196556471342144,-0.01836230900806028,0.2077911361738281,0.3916937766098718,0.1357561040204136,738.974358974359,796.996336996337,814.7252747252747,718.4249084249085,516.5567765567765,-0.043335,0.010498,1.007080,-0.889740,-1.128998,-0.590668,451282.051282,107613846.153846,37579706.959707,112.592743,1,1,1,1,1,100.000000
2568-11-17 11:24:25.812,,,,,,,,,,,,,,,,,,,,,,,,,,,,,,,,,,,,,,,,,,/muse/elements/blink
2568-11-17 11:24:26.759,1.045856973970361,0.5835394730701285,0.3471497309977461,1.530678109651103,0.9326885500341345,0.1457185698912385,-0.2515894306557627,1.400866740651133,1.170132104590825,0.2754936791660373,0.3342933787908994,1.632731860668931,0.759380896158154,0.4912714208264825,0.8991177580107795,0.8033434988612095,0.04805115247063001,0.3275384032530362,0.5185252287401225,0.2133864484680512,704.3223443223443,814.7252747252747,807.0695970695971,766.7765567765568,674.9084249084249,-0.040344,0.006531,1.011230,-0.515900,-1.801910,0.216827,450476.190476,107237509.157509,37358095.238095,112.592743,1,1,1,1,1,100.000000
2568-11-17 11:24:27.295,,,,,,,,,,,,,,,,,,,,,,,,,,,,,,,,,,,,,,,,,,/muse/elements/blink
2568-11-17 11:24:27.630,,,,,,,,,,,,,,,,,,,,,,,,,,,,,,,,,,,,,,,,,,/muse/elements/blink
2568-11-17 11:24:27.752,1.045856973970361,0.9098962939023487,0.7114178164404598,1.565303686837364,0.9326885500341345,0.2861285464874751,0.2041990147176481,1.464290042947815,1.170132104590825,0.6431017443279822,0.1524280545292137,1.631565300845397,0.759380896158154,0.4555433132283142,0.5069742838678875,0.8489226172594565,0.04805115247063001,0.02286413206052336,0.4446726818842502,0.2381667644753906,778.0586080586081,813.1135531135532,799.0109890109891,731.3186813186813,1004.908424908425,-0.027344,0.006836,1.005798,-0.814972,-1.510315,1.241150,451282.051282,107318095.238095,37299267.399267,112.592743,1,1,1,1,1,100.000000
2568-11-17 11:24:28.752,1.045856973970361,1.053070766692689,1.032637178105374,1.565303686837364,0.9326885500341345,0.6463011813785061,0.5899989227838952,1.464290042947815,1.170132104590825,0.6511051168395586,0.541164912423966,1.631565300845397,0.759380896158154,0.4210409786547336,0.4224491353270682,0.8489226172594565,0.04805115247063001,-0.03227971789854364,0.05657482573197789,0.2381667644753906,488.3516483516484,806.6666666666667,824.3956043956044,757.1062271062272,605.6043956043957,-0.022888,0.011414,1.001587,-0.463562,-1.517792,-0.441132,452087.912088,107434139.194139,37328278.388278,112.592743,1,2,1,1,2,100.000000
2568-11-17 11:24:28.763,,,,,,,,,,,,,,,,,,,,,,,,,,,,,,,,,,,,,,,,,,/muse/elements/blink
2568-11-17 11:24:29.760,1.045856973970361,0.8548002220700038,0.7327914951562237,1.565303686837364,0.9326885500341345,0.4225762744956946,0.3285612497960322,1.464290042947815,1.170132104590825,0.3983727341025174,0.528977956186339,1.631565300845397,0.759380896158154,0.438007605777496,0.6037775225531612,0.8489226172594565,0.04805115247063001,0.1076299037407499,0.3753917193543689,0.2381667644753906,0,801.025641025641,808.2783882783883,726.4835164835165,588.2783882783883,-0.032227,0.005249,1.003601,-0.822449,-0.934601,-0.171967,452087.912088,107114212.454212,37312161.172161,112.592743,1,2,1,1,2,100.000000
2568-11-17 11:24:30.160,,,,,,,,,,,,,,,,,,,,,,,,,,,,,,,,,,,,,,,,,,/muse/elements/blink
2568-11-17 11:24:30.764,1.045856973970361,0.7156924686560155,0.9179128012465694,1.565303686837364,0.9326885500341345,0.06772027285337516,0.4850126500738958,1.464290042947815,1.170132104590825,0.1570239971795309,0.7229817589116078,1.631565300845397,0.759380896158154,0.3766653555679247,0.7040075980640278,0.8489226172594565,0.04805115247063001,0.1703289548539083,0.6579948371409869,0.2381667644753906,1625.421245421245,810.6959706959707,799.0109890109891,748.6446886446887,668.4615384615385,-0.025696,0.011963,1.011841,-0.164490,-0.665436,0.343933,452087.912088,107116630.036630,37265421.245421,112.592743,1,2,1,1,2,100.000000
2568-11-17 11:24:31.205,,,,,,,,,,,,,,,,,,,,,,,,,,,,,,,,,,,,,,,,,,/muse/elements/blink
2568-11-17 11:24:31.469,,,,,,,,,,,,,,,,,,,,,,,,,,,,,,,,,,,,,,,,,,/muse/elements/blink
2568-11-17 11:24:31.751,1.045856973970361,0.6760479023738559,0.9882486880684975,1.565303686837364,0.9326885500341345,0.3008009065563393,0.5433501498982605,1.464290042947815,1.170132104590825,0.389625149423043,0.6464954146819508,1.631565300845397,0.759380896158154,0.3251231986956839,0.3798054639830972,0.8489226172594565,0.04805115247063001,-0.03280309006471009,0.2216876628376452,0.2381667644753906,723.2600732600732,821.1721611721612,794.981684981685,768.3882783882784,606.4102564102565,-0.020935,0.003479,1.002747,-1.704712,-2.063599,0.971985,450476.190476,107048937.728938,37280732.600733,112.592743,1,4,1,1,2,100.000000
2568-11-17 11:24:32.753,1.045856973970361,0.9818572581583314,0.6476703054622766,1.565303686837364,0.9326885500341345,0.750456744772844,0.2455938450741806,1.464290042947815,1.170132104590825,0.5017876081328533,0.4335052777356238,1.631565300845397,0.759380896158154,0.2551068535103918,0.796526245467058,0.8489226172594565,0.04805115247063001,0.2475335062931532,0.4627059830282417,0.2381667644753906,972.6739926739928,811.9047619047619,828.4249084249085,757.5091575091575,669.2673992673992,-0.026306,0.004944,1.007141,-0.934601,-1.644897,0.112152,450476.190476,107102930.402930,37339560.439560,112.592743,1,4,1,1,2,100.000000
2568-11-17 11:24:33.414,,,,,,,,,,,,,,,,,,,,,,,,,,,,,,,,,,,,,,,,,,/muse/elements/blink
2568-11-17 11:24:33.752,1.045856973970361,0.9818572581583314,0.6476703054622766,1.565303686837364,0.9326885500341345,0.750456744772844,0.2455938450741806,1.464290042947815,1.170132104590825,0.5017876081328533,0.4335052777356238,1.631565300845397,0.759380896158154,0.2551068535103918,0.796526245467058,0.8489226172594565,0.04805115247063001,0.2475335062931532,0.4627059830282417,0.2381667644753906,741.7948717948718,819.5604395604396,792.1611721611722,751.0622710622711,990.8058608058608,-0.022278,0.003052,0.996887,-0.433655,-1.390686,-0.388794,449670.329670,107041684.981685,37241245.421245,112.592743,1,2,1,1,2,100.000000
2568-11-17 11:24:34.759,1.045856973970361,0.8524150406844456,0.3504230506567998,1.565303686837364,0.9326885500341345,0.2499756204604758,-0.03421002111294183,1.464290042947815,1.170132104590825,0.2017717149029688,0.4709806219119133,1.631565300845397,0.759380896158154,0.1641520842199051,0.6377955733581802,0.8489226172594565,0.04805115247063001,-0.1752165521004445,0.5837818173064738,0.2381667644753906,796.1904761904763,799.0109890109891,832.4542124542124,709.1575091575091,738.974358974359,-0.031738,0.005798,1.002991,-1.353302,-1.816864,1.039276,449670.329670,107223809.523810,37273479.853480,112.592743,1,2,1,1,2,100.000000
2568-11-17 11:24:35.754,1.045856973970361,0.7925588936319029,0.667066913861349,1.565303686837364,0.9326885500341345,0.2323818419487138,0.4270318122073198,1.464290042947815,1.170132104590825,0.3648792519872065,0.5719543071540919,1.631565300845397,0.759380896158154,0.1790213853106534,0.7453135013908432,0.8489226172594565,0.04805115247063001,-0.1687601355979028,0.5140694781708821,0.2381667644753906,438.3882783882784,806.6666666666667,796.5934065934066,757.5091575091575,887.2527472527473,-0.018982,0.010925,1.007324,0.538330,-1.315918,-0.441132,449670.329670,107345494.505495,37292820.512821,112.592743,1,2,1,1,2,100.000000
2568-11-17 11:24:36.762,1.045856973970361,0.9392497644244151,0.6804239873059373,1.060232791933676,0.9326885500341345,0.1577951572073675,0.4319610463993152,0.7588444430919021,1.170132104590825,0.4199715966120177,0.5159315937255272,0.6777563344542957,0.759380896158154,0.2447408834555833,0.7730445312151484,0.3939170374278558,0.04805115247063001,-0.1587023441514222,0.5849537991268092,-0.02441065039487348,403.3333333333334,803.040293040293,819.5604395604396,744.2124542124542,743.8095238095239,-0.015503,0.022156,1.009766,0.448608,-1.540222,0.059814,450476.190476,107185934.065934,37283956.043956,112.592743,1,2,1,1,1,100.000000
2568-11-17 11:24:37.752,1.045856973970361,0.4911713995644369,0.5171774598537312,1.133740704767095,0.9326885500341345,0.1251523610261536,0.1839885869804115,0.7587197721892452,1.170132104590825,0.3725586798201299,0.5657533872286222,0.6777563344542957,0.759380896158154,0.2231138419552801,0.6333850256960686,0.3707750988453045,0.04805115247063001,0.0007551579500088944,0.3358208431283952,0.02169967310948268,817.1428571428571,794.981684981685,800.6227106227107,741.7948717948718,659.5970695970697,-0.017334,0.026550,1.016785,-0.725250,-1.487885,1.876678,449670.329670,107177069.597070,37286373.626374,112.592743,1,2,1,1,1,100.000000
2568-11-17 11:24:38.753,1.045856973970361,0.4945124171959294,0.7062748529729874,1.191647996162143,0.9326885500341345,0.2361957726867031,0.3857205238731944,0.7700625270961294,1.170132104590825,0.2338254212269977,0.5902402889911577,0.4969294671781221,0.759380896158154,0.1619912317641843,0.4645486693177733,0.2956457918320189,0.04805115247063001,-0.1528498901758829,0.1784426825209608,0.04351788895857663,1130.622710622711,800.6227106227107,796.5934065934066,737.3626373626374,834.0659340659341,-0.007141,0.023315,1.015564,0.448608,-0.321503,-0.635529,449670.329670,107082783.882784,37248498.168498,112.592743,1,2,1,1,1,100.000000
2568-11-17 11:24:39.311,,,,,,,,,,,,,,,,,,,,,,,,,,,,,,,,,,,,,,,,,,/muse/elements/blink
2568-11-17 11:24:39.730,,,,,,,,,,,,,,,,,,,,,,,,,,,,,,,,,,,,,,,,,,/muse/elements/blink
2568-11-17 11:24:39.752,1.045856973970361,0.7335321050387105,0.9210905776659091,1.191647996162143,0.9326885500341345,0.2673386650567893,0.4633937971653613,0.7700625270961294,1.170132104590825,0.4810330319615473,0.421528070303515,0.4969294671781221,0.759380896158154,0.2516560000832537,0.5208001523022346,0.2956457918320189,0.04805115247063001,-0.1772914852942193,0.2190000469989981,0.04351788895857663,811.9047619047619,759.1208791208792,865.4945054945056,838.0952380952381,949.7069597069598,-0.018860,0.017822,1.015259,-0.560760,-1.143951,0.590668,450476.190476,106990915.750916,37231575.091575,112.592743,1,2,1,1,2,100.000000
2568-11-17 11:24:40.756,1.045856973970361,0.985487079326241,1.181402427319081,1.191647996162143,0.9326885500341345,0.3672603639889084,0.6291959744091071,0.7700625270961294,1.170132104590825,0.4519161219686157,0.2193412881904164,0.4969294671781221,0.759380896158154,0.3295805671408347,0.3617570677620691,0.2956457918320189,0.04805115247063001,-0.1470273444120062,0.2526208131192149,0.04351788895857663,766.7765567765568,809.4871794871796,793.3699633699634,724.0659340659341,678.9377289377289,-0.020569,0.010193,1.005371,-0.478516,-1.801910,0.067291,450476.190476,106774139.194139,37191282.051282,112.592743,1,2,1,1,2,100.000000
2568-11-17 11:24:41.752,1.045856973970361,1.107101985305058,1.016447919133348,1.191647996162143,0.9326885500341345,0.5995127905372523,0.8147501260467961,0.7700625270961294,1.170132104590825,0.567883151926561,0.7338492452139983,0.4969294671781221,0.759380896158154,0.3631884497267142,0.961936486890853,0.2956457918320189,0.04805115247063001,0.04396970798007797,0.807447442413208,0.04351788895857663,1528.717948717949,794.981684981685,814.3223443223443,691.8315018315019,734.1391941391942,-0.017029,0.022095,1.016052,-0.747681,-1.106567,0.792542,449670.329670,106745128.205128,37213846.153846,112.592743,1,2,1,1,2,100.000000
2568-11-17 11:24:42.171,,,,,,,,,,,,,,,,,,,,,,,,,,,,,,,,,,,,,,,,,,/muse/elements/blink
2568-11-17 11:24:42.761,1.045856973970361,0.8079176751394015,0.5193886143121467,1.191647996162143,0.9326885500341345,0.4905905232923755,0.4470753285210736,0.7700625270961294,1.170132104590825,0.5067666420762992,0.7173138120976951,0.4969294671781221,0.759380896158154,0.3582629034555034,0.798473889183891,0.2956457918320189,0.04805115247063001,-0.1532996421678481,0.7115714970247721,0.04351788895857663,900.5494505494506,809.4871794871796,812.7106227106227,796.1904761904763,793.7728937728938,-0.016479,0.007080,0.998047,-0.418701,-1.682281,0.044861,451282.051282,106778168.498168,37242857.142857,112.592743,1,2,1,1,2,100.000000
2568-11-17 11:24:43.752,1.045856973970361,0.679886186401924,0.4928462692050471,1.191647996162143,0.9326885500341345,0.4953866564285841,0.1066910755438824,0.7700625270961294,1.170132104590825,0.3545115280185392,0.5227369212182226,0.4969294671781221,0.759380896158154,0.309148261865918,0.7273977287521641,0.2956457918320189,0.04805115247063001,-0.1488471441149257,0.6415171021411057,0.04351788895857663,740.989010989011,807.0695970695971,811.9047619047619,764.7619047619048,437.985347985348,-0.019043,0.012756,1.007690,-0.493469,-0.889740,-0.284119,451282.051282,106795091.575092,37249304.029304,112.592743,1,2,1,1,2,100.000000
2568-11-17 11:24:44.760,1.045856973970361,0.5244473216174813,1.113042729925205,1.191647996162143,0.9326885500341345,0.2616711087106436,1.268923482998943,0.7700625270961294,1.170132104590825,0.01771647906444591,0.7829186741883762,0.4969294671781221,0.759380896158154,0.199850542034643,0.519592823151069,0.2956457918320189,0.04805115247063001,-0.2561846965879691,0.08740323200865566,0.04351788895857663,0,794.5787545787546,802.6373626373627,724.0659340659341,582.6373626373627,-0.020264,0.015747,1.005005,0.284119,-0.904694,-0.411224,450476.190476,107016703.296703,37306520.146520,112.592743,1,2,1,1,2,100.000000
2568-11-17 11:24:45.207,,,,,,,,,,,,,,,,,,,,,,,,,,,,,,,,,,,,,,,,,,/muse/elements/blink
2568-11-17 11:24:45.752,1.045856973970361,1.173174808160083,1.204066265570288,1.191647996162143,0.9326885500341345,0.9765910813670633,1.28684021085186,0.7700625270961294,1.170132104590825,0.5181828861939641,0.9539384980603575,0.4969294671781221,0.759380896158154,0.207784133417831,0.4956702623936909,0.2956457918320189,0.04805115247063001,-0.2191995174296657,0.08397449868187855,0.04351788895857663,225.6410256410256,793.7728937728938,821.1721611721612,716.007326007326,629.3772893772893,-0.025757,0.010742,1.008789,-0.545807,-1.084137,-0.254211,450476.190476,106981245.421245,37305714.285714,112.592743,1,4,1,1,2,100.000000
2568-11-17 11:24:46.762,1.045856973970361,1.182514153272064,0.7243050572573708,1.191647996162143,0.9326885500341345,0.923552008945179,0.6343921087096049,0.7700625270961294,1.170132104590825,0.6011337350117988,0.5338520065800922,0.4969294671781221,0.759380896158154,0.3052588640820876,0.548325286219255,0.2956457918320189,0.04805115247063001,-0.2852557455200189,0.4780791545831494,0.04351788895857663,0,805.4578754578755,795.3846153846154,675.7142857142858,477.8754578754579,-0.022827,0.013977,1.012634,-0.665436,-1.001892,0.672913,449670.329670,106787032.967033,37249304.029304,112.592743,1,4,1,1,2,100.000000
2568-11-17 11:24:47.763,1.045856973970361,0.5534233438289029,0.9223313966673291,1.191647996162143,0.9326885500341345,0.3287752185829232,0.6389558391933893,0.7700625270961294,1.170132104590825,0.4219104185370941,0.3923205892994245,0.4969294671781221,0.759380896158154,0.230431179420781,0.4841015190782159,0.2956457918320189,0.04805115247063001,-0.2748959467609109,0.3741040279458501,0.04351788895857663,378.7545787545787,798.6080586080586,869.5238095238095,747.4358974358975,707.1428571428571,-0.024475,0.011353,1.005798,-0.770111,-0.986938,0.381317,450476.190476,106536410.256410,37230769.230769,112.592743,1,2,1,1,2,100.000000
2568-11-17 11:24:48.122,,,,,,,,,,,,,,,,,,,,,,,,,,,,,,,,,,,,,,,,,,/muse/elements/blink
2568-11-17 11:24:48.752,1.045856973970361,0.1770916521480697,0.9381272709257463,1.191647996162143,0.9326885500341345,0.01500883161881218,0.5063329687694774,0.7700625270961294,1.170132104590825,0.3534974891773869,0.3412643610606279,0.4969294671781221,0.759380896158154,0.2129042888309348,0.515266271529124,0.2956457918320189,0.04805115247063001,-0.1953699899722732,0.2805343830471382,0.04351788895857663,943.6630036630037,814.7252747252747,806.6666666666667,712.7838827838829,589.0842490842491,-0.026672,0.007446,0.999207,-0.770111,-1.256104,-1.054230,449670.329670,106464688.644689,37250109.890110,112.592743,1,4,1,1,2,100.000000
2568-11-17 11:24:49.239,,,,,,,,,,,,,,,,,,,,,,,,,,,,,,,,,,,,,,,,,,/muse/elements/blink
2568-11-17 11:24:49.752,1.045856973970361,0.6441290325554211,1.158479389332667,1.191647996162143,0.9326885500341345,0.1009699721887851,0.8119268217472713,0.7700625270961294,1.170132104590825,0.5486582242504003,0.5815446565140455,0.4969294671781221,0.759380896158154,0.3009823132952203,0.4394389873525875,0.2956457918320189,0.04805115247063001,-0.220034822858821,0.1573274461684119,0.04351788895857663,913.040293040293,802.2344322344322,804.2490842490843,737.3626373626374,574.1758241758242,-0.020996,0.009521,1.008362,-0.358887,-1.517792,-0.725250,449670.329670,106442124.542125,37266227.106227,112.592743,1,2,1,1,2,100.000000
2568-11-17 11:24:50.752,1.045856973970361,0.7408672535690096,1.041266933545588,1.191647996162143,0.9326885500341345,0.2316550452518857,0.7624369715910293,0.7700625270961294,1.170132104590825,0.6681461613952658,0.7091972626304762,0.4969294671781221,0.759380896158154,0.3802658648051165,0.4429852999727317,0.2956457918320189,0.04805115247063001,-0.242865805438254,0.02542537708108183,0.04351788895857663,880,812.3076923076924,807.0695970695971,748.6446886446887,630.5860805860806,-0.024048,0.008484,1.006470,-0.702820,-1.667328,0.508423,449670.329670,106459047.619048,37258168.498168,112.592743,1,2,1,1,2,100.000000
2568-11-17 11:24:51.306,,,,,,,,,,,,,,,,,,,,,,,,,,,,,,,,,,,,,,,,,,/muse/elements/blink
2568-11-17 11:24:51.759,1.045856973970361,0.7715059487692861,1.003561440030237,1.191647996162143,0.9326885500341345,0.6663301650843769,0.6093047124311004,0.7700625270961294,1.170132104590825,0.8447805462791913,0.8272792125624633,0.4969294671781221,0.759380896158154,0.4124036318401155,0.4259114310866504,0.2956457918320189,0.04805115247063001,-0.1308086505525504,0.08529150070089013,0.04351788895857663,0,796.996336996337,779.6703296703297,704.7252747252747,571.7582417582418,-0.011047,0.009827,1.007507,-0.575714,-2.250519,0.276642,451282.051282,106496923.076923,37262197.802198,112.592743,1,2,1,1,2,100.000000
2568-11-17 11:24:52.760,1.045856973970361,1.030500734806832,1.166007617683823,1.191647996162143,0.9326885500341345,0.7400766696110513,0.6689440145393568,0.7700625270961294,1.170132104590825,0.6559485725705626,0.7812799848273697,0.4969294671781221,0.759380896158154,0.2797745472178317,0.5278262225342196,0.2956457918320189,0.04805115247063001,-0.2056217561540905,0.1031256313024739,0.04351788895857663,452.0879120879121,814.7252747252747,828.021978021978,863.8827838827839,708.3516483516484,-0.009460,0.011230,1.005615,-0.104675,-1.330872,-0.194397,451282.051282,106651648.351648,37259780.219780,112.592743,1,2,1,1,2,100.000000
2568-11-17 11:24:52.815,,,,,,,,,,,,,,,,,,,,,,,,,,,,,,,,,,,,,,,,,,/muse/elements/blink
2568-11-17 11:24:53.322,,,,,,,,,,,,,,,,,,,,,,,,,,,,,,,,,,,,,,,,,,/muse/elements/blink
2568-11-17 11:24:53.739,,,,,,,,,,,,,,,,,,,,,,,,,,,,,,,,,,,,,,,,,,/muse/elements/blink
2568-11-17 11:24:53.754,1.045856973970361,1.045687006153256,1.381983273666128,1.191647996162143,0.9326885500341345,0.9309671252734595,0.8733215603437502,0.7700625270961294,1.170132104590825,0.7675219174127169,0.5020131183766855,0.4969294671781221,0.759380896158154,0.2730882118304547,0.4066364955469471,0.2956457918320189,0.04805115247063001,-0.1668376503832462,-0.2065517715682309,0.04351788895857663,506.4835164835165,807.8754578754579,829.2307692307693,802.2344322344322,588.2783882783883,-0.015259,0.012146,1.010193,-0.448608,-0.994415,-0.231781,452087.912088,106868424.908425,37275091.575092,112.592743,1,2,1,1,2,100.000000
2568-11-17 11:24:54.133,,,,,,,,,,,,,,,,,,,,,,,,,,,,,,,,,,,,,,,,,,/muse/elements/blink
2568-11-17 11:24:54.637,,,,,,,,,,,,,,,,,,,,,,,,,,,,,,,,,,,,,,,,,,/muse/elements/blink
2568-11-17 11:24:54.751,1.045856973970361,0.6540204923310498,1.4417615469814,1.191647996162143,0.9326885500341345,0.6725130251095675,0.873492490404437,0.7700625270961294,1.170132104590825,0.6724816712920685,0.5338392013852452,0.4969294671781221,0.759380896158154,0.313774272103539,0.3861250570884042,0.2956457918320189,0.04805115247063001,-0.218335249812098,-0.2319106083761804,0.04351788895857663,720.8424908424909,807.0695970695971,809.4871794871796,827.2161172161173,655.1648351648352,-0.019653,0.009888,1.003479,-0.590668,-1.039276,0.261688,452087.912088,107007032.967033,37255750.915751,112.592743,1,2,1,1,2,100.000000
2568-11-17 11:24:55.751,1.045856973970361,0.8575613134891604,1.374777861552328,1.191647996162143,0.9326885500341345,0.4424933679734177,0.7423984237089721,0.7700625270961294,1.170132104590825,0.3506763824510346,0.3333086082887322,0.4969294671781221,0.759380896158154,0.2181183757823584,0.3704072561017919,0.2956457918320189,0.04805115247063001,-0.1065242877687948,-0.1533149583368446,0.04351788895857663,629.3772893772893,801.025641025641,811.0989010989011,777.6556776556777,529.8534798534798,-0.021912,0.015991,1.014099,0.314026,-1.757050,-0.104675,451282.051282,107036043.956044,37236410.256410,112.592743,1,2,1,1,2,100.000000
2568-11-17 11:24:56.384,,,,,,,,,,,,,,,,,,,,,,,,,,,,,,,,,,,,,,,,,,/muse/elements/blink
2568-11-17 11:24:56.752,1.045856973970361,1.005833398194709,0.311398003331308,1.191647996162143,0.9326885500341345,0.3713576079792713,-0.01004459704748321,0.7700625270961294,1.170132104590825,0.09012506907070036,0.3047431097566149,0.4969294671781221,0.759380896158154,0.1709547053149297,0.04634769642911742,0.2956457918320189,0.04805115247063001,-0.157879281129462,-0.1800817290729493,0.04351788895857663,832.8571428571429,809.0842490842491,806.2637362637363,792.967032967033,658.3882783882784,-0.009277,0.016602,1.010254,-0.246735,-1.697235,0.067291,450476.190476,106696776.556777,37169523.809524,112.592743,1,2,1,1,2,100.000000
2568-11-17 11:24:57.401,,,,,,,,,,,,,,,,,,,,,,,,,,,,,,,,,,,,,,,,,,/muse/elements/blink
2568-11-17 11:24:57.752,1.045856973970361,0.9793779542728429,0.3041137033241759,1.191647996162143,0.9326885500341345,0.1660860404146773,-0.1747685388255646,0.7700625270961294,1.170132104590825,0.199541104675052,-0.03006332743131754,0.4969294671781221,0.759380896158154,0.2555636587711744,0.05759527479777823,0.2956457918320189,0.04805115247063001,-0.2882681489004027,-0.2659659794547352,0.04351788895857663,782.893772893773,795.7875457875458,805.0549450549451,747.4358974358975,667.2527472527473,-0.010376,0.012085,1.012939,-0.837402,-1.779480,0.029907,451282.051282,106551721.611722,37105054.945055,112.592743,1,2,1,1,2,100.000000
2568-11-17 11:24:58.015,,,,,,,,,,,,,,,,,,,,,,,,,,,,,,,,,,,,,,,,,,/muse/elements/blink
2568-11-17 11:24:58.630,,,,,,,,,,,,,,,,,,,,,,,,,,,,,,,,,,,,,,,,,,/muse/elements/blink
2568-11-17 11:24:58.752,1.045856973970361,1.279232416893454,0.5696542365684095,1.191647996162143,0.9326885500341345,0.4819539673505405,0.0547099283270207,0.7700625270961294,1.170132104590825,0.1514227078631772,-0.1288976385699355,0.4969294671781221,0.759380896158154,0.1976623773881924,0.1987755527145887,0.2956457918320189,0.04805115247063001,-0.3632343233805853,-0.3901695756840646,0.04351788895857663,748.2417582417582,814.7252747252747,805.0549450549451,763.956043956044,560.8791208791209,-0.023438,0.011536,1.007690,-0.291595,-0.822449,-0.246735,452893.772894,106558974.358974,37104249.084249,112.592743,1,2,1,1,2,100.000000
2568-11-17 11:24:59.425,,,,,,,,,,,,,,,,,,,,,,,,,,,,,,,,,,,,,,,,,,/muse/elements/blink
2568-11-17 11:24:59.752,1.045856973970361,1.062857422797641,0.8494309108863837,1.191647996162143,0.9326885500341345,0.451486209257632,0.494849335780529,0.7700625270961294,1.170132104590825,0.2952477931507053,0.5949022064861176,0.4969294671781221,0.759380896158154,0.2545634057396776,0.2578429614320332,0.2956457918320189,0.04805115247063001,-0.09578694524131159,-0.1445374921865367,0.04351788895857663,825.2014652014652,796.1904761904763,807.0695970695971,740.989010989011,653.5531135531136,-0.014099,0.018066,1.009033,-0.336456,-1.300964,-0.186920,452087.912088,106386520.146520,37078461.538462,112.592743,1,2,1,1,2,100.000000
2568-11-17 11:25:00.752,1.045856973970361,1.077235531742991,0.7744687918034645,1.191647996162143,0.9326885500341345,0.3323755578153576,0.3125937471965826,0.7700625270961294,1.170132104590825,0.4131912425727586,0.5546401267399335,0.4969294671781221,0.759380896158154,0.1356791763618973,0.2204099652607688,0.2956457918320189,0.04805115247063001,-0.212978852033298,-0.1517800482210034,0.04351788895857663,742.1978021978023,810.2930402930403,813.919413919414,785.3113553113553,820.3663003663004,-0.017334,0.014709,1.006470,-0.366364,-1.772003,0.448608,451282.051282,106327692.307692,37065567.765568,112.592743,1,2,1,1,2,100.000000
2568-11-17 11:25:01.752,1.045856973970361,0.7697132790646568,0.9280135419877086,1.191647996162143,0.9326885500341345,0.3853745089786693,0.3444891358610643,0.7700625270961294,1.170132104590825,0.4431960008097643,0.2211444914207872,0.4969294671781221,0.759380896158154,0.1762529567811612,0.2085852065561571,0.2956457918320189,0.04805115247063001,-0.3743773489676696,-0.3248659040468663,0.04351788895857663,1290.989010989011,818.3516483516484,814.7252747252747,782.893772893773,641.4652014652015,-0.011169,0.010437,1.008667,-0.583191,-1.323395,-0.074768,451282.051282,106421172.161172,37049450.549451,112.592743,1,2,1,1,2,100.000000
2568-11-17 11:25:02.757,1.045856973970361,0.8760965510154615,0.9642056305578923,1.132980623769495,0.9326885500341345,0.1964597932775876,0.4230316086057355,0.6987345625361894,1.170132104590825,0.4113004359089866,0.04162066715067283,0.5550438691091809,0.759380896158154,0.2739447884072472,0.3364720192319111,0.5694434923052227,0.04805115247063001,-0.2532703424642521,-0.3641916929436834,0.1664310895893102,662.014652014652,805.4578754578755,804.6520146520147,758.7179487179487,552.014652014652,-0.007141,0.011597,1.006714,-0.485992,-1.241150,-0.508423,450476.190476,106339780.219780,37054285.714286,112.592743,1,2,1,1,1,100.000000
2568-11-17 11:25:03.672,,,,,,,,,,,,,,,,,,,,,,,,,,,,,,,,,,,,,,,,,,/muse/elements/blink
2568-11-17 11:25:03.752,1.045856973970361,0.6486654599156352,0.4556611437637862,1.384642297457414,0.9326885500341345,0.1326405142600235,0.06630447229979032,0.9579622323809249,1.170132104590825,0.2355365261530265,0.3956136072598038,0.6451436672255494,0.759380896158154,0.2663909194550533,0.2754966235105196,0.4030500736066384,0.04805115247063001,-0.3173167436687786,-0.03137087243884019,-0.09832760689972753,900.5494505494506,815.934065934066,808.2783882783883,795.7875457875458,760.3296703296703,-0.003479,0.015442,1.013245,-0.471039,-1.308441,-0.448608,450476.190476,106405054.945055,37057509.157509,112.592743,1,2,1,1,1,100.000000
2568-11-17 11:25:04.751,1.045856973970361,0.5255982866735297,0.2875145209667477,1.429310311316285,0.9326885500341345,0.1606563515237835,0.09969949307154384,1.000126460604404,1.170132104590825,0.306452769600537,0.4019033934081709,0.6451436672255494,0.759380896158154,0.2401657920361662,0.2903276671153288,0.3811400915958664,0.04805115247063001,-0.2823615716902277,-0.07789371436578038,-0.1079122491600823,729.3040293040293,810.6959706959707,807.0695970695971,762.7472527472528,668.4615384615385,-0.003296,0.012695,1.009399,-0.321503,-1.166382,0.059814,452087.912088,106403443.223443,37071208.791209,112.592743,1,2,1,1,1,100.000000
2568-11-17 11:25:05.753,1.045856973970361,0.6220649026211762,0.3038405067131343,0.9631610752003449,0.9326885500341345,0.1109207294590503,0.1289920561632032,0.6470659621125526,1.170132104590825,0.1557488677559534,0.4032992190094428,0.8831033915440143,0.759380896158154,0.178983821271914,0.1842309538149057,0.4925200416465985,0.04805115247063001,-0.2064713814864848,-0.2594867982600826,0.1276714694894477,749.8534798534798,799.4139194139194,807.0695970695971,733.7362637362637,535.8974358974359,-0.011230,0.010498,1.009644,0.291595,-1.158905,0.702820,452087.912088,106481611.721612,37073626.373626,112.592743,1,2,1,1,1,100.000000
2568-11-17 11:25:06.764,1.045856973970361,0.7824502903033316,0.3081284272656211,1.166272632792569,0.9326885500341345,0.03045228999274846,0.1312463099472851,0.5950815771112079,1.170132104590825,0.1534248686247383,0.4845455612914681,0.8763304003920254,0.759380896158154,0.1393559587903679,0.07130447019149565,0.5064763718710147,0.04805115247063001,-0.2716335230185192,-0.2415006745502091,0.09916586927021967,750.6593406593407,805.8608058608058,813.919413919414,761.1355311355312,773.6263736263736,-0.002563,0.012817,1.008118,0.620575,-1.315918,0.934601,450476.190476,106272893.772894,37059120.879121,112.592743,1,2,1,1,1,100.000000
2568-11-17 11:25:07.529,,,,,,,,,,,,,,,,,,,,,,,,,,,,,,,,,,,,,,,,,,/muse/elements/blink
2568-11-17 11:25:07.764,1.045856973970361,0.8044873033990979,0.3822443768524621,1.119435412201914,0.9326885500341345,0.125280105725717,0.2338098972633359,0.9058584614696741,1.170132104590825,0.3282560636910364,0.4537917862213599,0.85053465250173,0.759380896158154,0.2674296190126325,0.2257545928487117,0.5137163229088153,0.04805115247063001,-0.3466524039948257,-0.09762078282617806,-0.1244204030514649,759.5238095238095,752.6739926739926,771.2087912087912,791.7582417582418,752.6739926739926,-0.008545,0.009399,1.010254,-1.203766,0.209351,0.605621,446446.886447,105620952.380952,36650549.450549,112.592743,1,2,1,1,1,100.000000
2568-11-17 11:25:08.233,,,,,,,,,,,,,,,,,,,,,,,,,,,,,,,,,,,,,,,,,,/muse/elements/blink
2568-11-17 11:25:08.752,1.045856973970361,0.8677896249903456,0.5266721356951085,1.008891350497485,0.9326885500341345,0.3381544678052949,0.5427603132728703,0.947640900677994,1.170132104590825,0.3187869664435021,0.2469094697555435,0.8035538932474744,0.759380896158154,0.4859315518931989,0.385875979223068,0.5568558532071377,0.04805115247063001,-0.2515744871992053,0.01880644260950902,-0.1028404099442173,1000.07326007326,800.6227106227107,854.6153846153846,720.8424908424909,694.6520146520147,-0.005859,0.003235,0.998413,0.194397,-1.689758,-0.792542,448864.468864,105602417.582418,36764175.824176,112.592743,1,2,1,1,1,100.000000
2568-11-17 11:25:08.847,,,,,,,,,,,,,,,,,,,,,,,,,,,,,,,,,,,,,,,,,,/muse/elements/blink
2568-11-17 11:25:09.752,1.045856973970361,0.9121398900176424,0.6113717152913769,1.008891350497485,0.9326885500341345,0.5118031597102789,0.6056198508319561,0.947640900677994,1.170132104590825,-0.03522357760822412,0.2425167075498424,0.8035538932474744,0.759380896158154,0.04307094268911911,0.4139786423476142,0.5568558532071377,0.04805115247063001,-0.1936364967153779,0.03310861379589882,-0.1028404099442173,781.2820512820513,804.2490842490843,795.7875457875458,791.7582417582418,652.7472527472528,-0.000977,0.015442,1.007446,-0.373840,-1.607513,0.044861,448864.468864,105575824.175824,36756923.076923,112.592743,1,2,1,1,1,100.000000
2568-11-17 11:25:10.752,1.045856973970361,0.5435547563923,0.629578368837977,1.008891350497485,0.9326885500341345,0.08394537031055323,-0.1643503290634958,0.947640900677994,1.170132104590825,0.1345902310315471,0.1843518084290232,0.8035538932474744,0.759380896158154,0.143195833561491,0.5202719858852384,0.5568558532071377,0.04805115247063001,-0.1902825582427172,0.0954415288385963,-0.1028404099442173,938.4249084249085,814.3223443223443,807.0695970695971,805.8608058608058,532.6739926739926,-0.000366,0.008179,1.004089,-0.224304,-1.188812,0.426178,449670.329670,105649157.509158,36794798.534799,112.592743,1,2,1,1,2,100.000000
2568-11-17 11:25:10.803,,,,,,,,,,,,,,,,,,,,,,,,,,,,,,,,,,,,,,,,,,/muse/elements/blink
2568-11-17 11:25:11.592,,,,,,,,,,,,,,,,,,,,,,,,,,,,,,,,,,,,,,,,,,/muse/elements/blink
2568-11-17 11:25:11.759,1.045856973970361,0.9156191161757762,0.6410150696631475,1.008891350497485,0.9326885500341345,0.2721257247384836,0.2926265254306462,0.947640900677994,1.170132104590825,0.5419668292381261,0.5425012737059599,0.8035538932474744,0.759380896158154,0.175624064007399,0.3710003983965063,0.5568558532071377,0.04805115247063001,-0.09508095387503114,-0.04615742141728789,-0.1028404099442173,1003.296703296703,804.2490842490843,820.7692307692308,770.4029304029305,669.6703296703297,0.002136,0.010681,1.003784,-0.104675,-1.622467,-0.261688,450476.190476,105608864.468864,36865714.285714,112.592743,1,2,1,1,2,100.000000
2568-11-17 11:25:12.752,1.045856973970361,0.8966354478212737,0.6702356342789382,1.008891350497485,0.9326885500341345,0.3089040012320818,0.5100610680686855,0.947640900677994,1.170132104590825,0.419854814346831,0.7882706095232086,0.8035538932474744,0.759380896158154,0.1553710160788593,0.6357430459231633,0.5568558532071377,0.04805115247063001,-0.2681459951797014,0.2505531284667583,-0.1028404099442173,896.1172161172161,807.4725274725275,803.040293040293,748.2417582417582,715.2014652014652,0.001587,0.009644,1.005676,-0.657959,-1.233673,-0.314026,448058.608059,105274432.234432,36817362.637363,112.592743,1,2,1,1,2,100.000000
2568-11-17 11:25:13.108,,,,,,,,,,,,,,,,,,,,,,,,,,,,,,,,,,,,,,,,,,/muse/elements/blink
2568-11-17 11:25:13.758,1.045856973970361,0.5835040384239317,0.8863331657834111,1.008891350497485,0.9326885500341345,0.1595867190712457,0.5484140078366965,0.947640900677994,1.170132104590825,0.2577294523913138,0.7882706095232086,0.8035538932474744,0.759380896158154,-0.05355775988511168,0.6860483420727311,0.5568558532071377,0.04805115247063001,-0.3249971494068186,0.2410658187029264,-0.1028404099442173,954.5421245421246,829.6336996336996,774.0293040293041,730.5128205128206,863.0769230769231,0.001038,0.009033,1.012878,-0.299072,-0.829926,-0.426178,448058.608059,105288937.728938,36815750.915751,112.592743,1,2,1,1,2,100.000000
2568-11-17 11:25:14.751,1.045856973970361,0.9598952946852123,0.8174495036310103,1.470064210382737,0.9326885500341345,0.7369438338776872,0.1732899042474899,0.6461733861708689,1.170132104590825,0.482765739827152,0.2054004730874911,0.9649030759522795,0.759380896158154,0.1682603780270989,0.2619412336421211,0.7294984837162606,0.04805115247063001,-0.3977423019626262,-0.05030946517777406,-0.02288280338154203,882.014652014652,809.8901098901099,808.6813186813187,760.7326007326008,737.7655677655678,0.002747,0.012085,1.004089,-0.366364,-1.943970,0.433655,450476.190476,105383223.443223,36878608.058608,112.592743,1,1,1,1,1,100.000000
2568-11-17 11:25:15.352,,,,,,,,,,,,,,,,,,,,,,,,,,,,,,,,,,,,,,,,,,/muse/elements/blink
2568-11-17 11:25:15.753,1.045856973970361,1.095557379563607,0.6250469362293715,1.564221652626869,0.9326885500341345,0.814422560311587,0.3576725845530203,0.6396428888499607,1.170132104590825,0.6162725846325275,0.2952669137972254,0.9644154572366523,0.759380896158154,0.4066545084412666,0.0450821571099656,0.7297210959898766,0.04805115247063001,-0.2439666754872081,-0.3788499796355278,0.01600387219486618,849.7802197802198,801.4285714285714,805.8608058608058,653.956043956044,722.0512820512821,-0.002258,0.011047,1.006714,-0.396271,-1.839294,0.403748,450476.190476,105474285.714286,36907619.047619,112.592743,1,1,1,1,1,100.000000
2568-11-17 11:25:16.150,,,,,,,,,,,,,,,,,,,,,,,,,,,,,,,,,,,,,,,,,,/muse/elements/blink
2568-11-17 11:25:16.765,1.045856973970361,1.041852390560681,0.8544553950026879,1.564221652626869,0.9326885500341345,0.5538497828344255,0.3457468959856561,0.6396428888499607,1.170132104590825,0.4346931464485889,0.4546519144005718,0.9644154572366523,0.759380896158154,0.2704135930550816,0.5774372348654347,0.7297210959898766,0.04805115247063001,-0.1578216842293933,0.2307960329592642,0.01600387219486618,813.919413919414,776.0439560439561,806.2637362637363,722.8571428571429,633.4065934065934,0.001770,0.012695,1.005920,-0.500946,-1.487885,0.216827,448864.468864,105472673.992674,36886666.666667,112.592743,1,1,1,1,1,100.000000
2568-11-17 11:25:17.522,,,,,,,,,,,,,,,,,,,,,,,,,,,,,,,,,,,,,,,,,,/muse/elements/blink
2568-11-17 11:25:17.759,1.045856973970361,1.0982923770839,0.8101048968374861,1.564221652626869,0.9326885500341345,0.4875532695769031,0.2768810177018521,0.6396428888499607,1.170132104590825,0.3450738527244881,0.7557339092451837,0.9644154572366523,0.759380896158154,0.3201519853005902,0.7716367170099153,0.7297210959898766,0.04805115247063001,-0.08376649676881695,0.6360138800917595,0.01600387219486618,896.1172161172161,805.8608058608058,798.2051282051282,778.4615384615385,660,0.000977,0.013733,1.005249,-0.508423,-1.256104,0.276642,449670.329670,105712820.512821,36865714.285714,112.592743,1,2,1,1,2,100.000000
2568-11-17 11:25:18.297,,,,,,,,,,,,,,,,,,,,,,,,,,,,,,,,,,,,,,,,,,/muse/elements/blink
2568-11-17 11:25:18.583,,,,,,,,,,,,,,,,,,,,,,,,,,,,,,,,,,,,,,,,,,/muse/elements/blink
2568-11-17 11:25:18.752,1.045856973970361,1.206573862626767,1.190566122138385,1.564221652626869,0.9326885500341345,0.7110934449954769,0.6341761485116464,0.6396428888499607,1.170132104590825,0.3759492208319818,0.766263360888534,0.9644154572366523,0.759380896158154,0.2221876803077599,0.7649434245764311,0.7297210959898766,0.04805115247063001,-0.3470139153003833,0.6438580144990927,0.01600387219486618,838.901098901099,814.3223443223443,803.8461538461539,812.7106227106227,712.3809523809524,-0.000610,0.014038,1.005188,-0.112152,-1.757050,0.403748,449670.329670,105793406.593407,36868937.728938,112.592743,1,2,1,1,2,100.000000
2568-11-17 11:25:19.530,,,,,,,,,,,,,,,,,,,,,,,,,,,,,,,,,,,,,,,,,,/muse/elements/blink
2568-11-17 11:25:19.762,1.045856973970361,1.032701894884436,0.6526094313173765,1.564221652626869,0.9326885500341345,0.4828540476932323,0.4147329615126974,0.6396428888499607,1.170132104590825,0.2939985029881894,0.5092348209485554,0.9644154572366523,0.759380896158154,0.1813004999917787,0.2065224333894033,0.7297210959898766,0.04805115247063001,-0.2645773722227798,-0.1578946990220252,0.01600387219486618,838.901098901099,791.7582417582418,807.0695970695971,738.974358974359,633.8095238095239,0.032410,0.046692,1.004272,3.110352,-6.729126,1.211243,449670.329670,105386446.886447,36844761.904762,112.592743,1,2,1,1,2,100.000000
2568-11-17 11:25:20.752,1.045856973970361,0.6940464727917468,0.6323115486361784,1.564221652626869,0.9326885500341345,0.4024765405460466,0.4000390473297606,0.6396428888499607,1.170132104590825,0.1774818878980733,0.457057422701608,0.9644154572366523,0.759380896158154,0.239408712291091,0.1396416271950582,0.7297210959898766,0.04805115247063001,-0.06536833493439458,-0.2766364881640984,0.01600387219486618,810.6959706959707,805.4578754578755,799.4139194139194,712.7838827838829,637.4358974358975,0.171143,0.063965,0.984680,1.323395,-3.985138,1.839294,446446.886447,105117289.377289,36817362.637363,112.592743,1,2,1,1,2,100.000000
2568-11-17 11:25:21.759,1.045856973970361,0.3751858285224731,0.6554941808137078,1.564221652626869,0.9326885500341345,0.2249871224027767,0.4207816234335282,0.6396428888499607,1.170132104590825,0.1376036812605224,0.2677424459400086,0.9644154572366523,0.759380896158154,0.2493773524419499,0.07480679434309138,0.7297210959898766,0.04805115247063001,0.006065995721454458,-0.3445555563466056,0.01600387219486618,850.989010989011,803.040293040293,807.4725274725275,823.5897435897436,921.5018315018315,0.169739,0.065430,0.992798,-0.396271,0.216827,-3.663635,446446.886447,105211575.091575,36890695.970696,112.592743,1,2,1,1,2,100.000000
2568-11-17 11:25:22.752,1.045856973970361,0.1826169167323959,0.9008642173182602,1.564221652626869,0.9326885500341345,-0.3628089049061297,0.4549961908684167,0.6396428888499607,1.170132104590825,0.2799061360296349,0.2779513777045713,0.9644154572366523,0.759380896158154,0.07729081533550398,0.2018035276453368,0.7297210959898766,0.04805115247063001,-0.1955040590410712,-0.3055248998392666,0.01600387219486618,804.2490842490843,819.1575091575091,805.4578754578755,757.5091575091575,621.7216117216118,0.180603,0.048096,0.982788,0.822449,-2.063599,0.104675,446446.886447,105118095.238095,36918901.098901,112.592743,1,2,1,1,2,100.000000
2568-11-17 11:25:23.751,1.045856973970361,0.4803856958645385,0.5570031369378825,1.564221652626869,0.9326885500341345,-0.05273865575544654,0.1674579122034183,0.6396428888499607,1.170132104590825,0.3100280234718992,0.2726968760601755,0.9644154572366523,0.759380896158154,0.08092799041880501,0.06262774060991476,0.7297210959898766,0.04805115247063001,-0.2759491129491555,-0.2961663568021182,0.01600387219486618,748.2417582417582,801.4285714285714,817.1428571428571,841.7216117216118,1014.175824175824,0.176819,0.068909,0.981384,-0.142059,-4.463654,-0.306549,445641.025641,105018168.498168,36917289.377289,112.592743,1,2,1,1,2,100.000000
2568-11-17 11:25:23.796,,,,,,,,,,,,,,,,,,,,,,,,,,,,,,,,,,,,,,,,,,/muse/elements/blink
2568-11-17 11:25:24.758,1.045856973970361,0.6810941661980495,0.6640601451348793,1.564221652626869,0.9326885500341345,0.2099983975403517,0.1891307088305148,0.6396428888499607,1.170132104590825,0.09264296462459032,0.2880533000349955,0.9644154572366523,0.759380896158154,0.06981603105419136,0.03040528674718244,0.7297210959898766,0.04805115247063001,-0.2732318045906011,-0.2912598644249484,0.01600387219486618,770,816.7399267399268,788.5347985347986,754.6886446886447,697.4725274725275,0.217957,0.056946,0.975708,0.052338,-2.302856,0.052338,445641.025641,105089084.249084,36943882.783883,112.592743,1,2,1,1,2,100.000000
2568-11-17 11:25:25.751,1.045856973970361,0.5421511563609133,0.6382419030894051,1.564221652626869,0.9326885500341345,-0.1169564731391263,0.2879818687100912,0.6396428888499607,1.170132104590825,0.04295749338385917,0.5360064227973237,0.9644154572366523,0.759380896158154,0.111524759917687,0.1841020051220702,0.7297210959898766,0.04805115247063001,-0.1720733544984029,-0.3936948820062187,0.01600387219486618,877.5824175824176,811.5018315018315,794.981684981685,712.3809523809524,668.8644688644689,0.230286,0.063599,0.979126,-0.366364,-1.614990,0.299072,447252.747253,105243809.523810,36974505.494505,112.592743,1,2,1,1,2,100.000000
2568-11-17 11:25:26.756,1.045856973970361,0.6853173536908578,0.6644724331834282,1.567868050354177,0.9326885500341345,0.03031111620073626,0.381711485604167,1.438555641876843,1.170132104590825,-0.2231060894137333,0.4043559820404502,1.42415562428569,0.759380896158154,0.09283453660470042,0.3070517171926453,1.019714249742415,0.04805115247063001,-0.1979044746758671,-0.3335090699998908,0.2539488296266624,788.1318681318681,803.040293040293,802.6373626373627,798.6080586080586,704.7252747252747,0.216614,0.062012,0.979309,-1.001892,-0.964508,-0.628052,444835.164835,105449304.029304,36991428.571429,112.592743,1,1,1,1,1,100.000000
2568-11-17 11:25:27.758,1.045856973970361,0.4809519331001724,0.5580292611381618,1.567868050354177,0.9326885500341345,0.2272058824875103,0.1772328397504212,1.438555641876843,1.170132104590825,0.6101069443269987,0.0629320985841328,1.42415562428569,0.759380896158154,0.1274756427143819,0.1391148591443057,1.019714249742415,0.04805115247063001,-0.3889928989621935,-0.3091343352658362,0.2539488296266624,889.2673992673992,816.7399267399268,821.1721611721612,771.6117216117216,668.0586080586081,0.214966,0.065857,0.982056,0.523376,-0.261688,-0.037384,444835.164835,105613699.633700,36997875.457875,112.592743,1,1,1,1,1,100.000000
2568-11-17 11:25:28.751,1.045856973970361,0.6185932241550219,0.1397516909897367,1.258958675726686,0.9326885500341345,0.4621744253222406,0.07371089849491794,0.744173521542597,1.170132104590825,0.724727130705195,0.5580745669983193,1.075297699147075,0.759380896158154,0.1725218842653016,0.106478993987682,0.6375544444622179,0.04805115247063001,-0.4195938170929314,-0.398695886764617,0.1153706444120946,801.025641025641,806.6666666666667,809.0842490842491,792.967032967033,630.5860805860806,0.230530,0.082825,0.989685,0.949554,-1.749573,1.801910,445641.025641,105343736.263736,36927765.567766,112.592743,1,1,1,1,1,100.000000
2568-11-17 11:25:28.759,,,,,,,,,,,,,,,,,,,,,,,,,,,,,,,,,,,,,,,,,,/muse/elements/blink
2568-11-17 11:25:29.752,1.045856973970361,0.879168367818391,0.1520453223774617,1.31054327000923,0.9326885500341345,0.9452794762148596,0.19678695021072,0.8199549971393237,1.170132104590825,1.138023746112202,0.5580745669983193,1.075297699147075,0.759380896158154,0.4611274941636649,0.09226050078654406,0.6565572861657217,0.04805115247063001,-0.2572625650248348,-0.3534013541130553,0.1248661401256437,727.6923076923077,804.2490842490843,797.8021978021978,763.956043956044,794.1758241758242,0.212524,0.065735,0.981506,-0.209351,-2.018738,-0.216827,444835.164835,105238168.498168,36885860.805861,112.592743,1,1,1,1,1,100.000000
2568-11-17 11:25:30.763,1.045856973970361,0.7693946415524525,0.02536968035076939,1.31054327000923,0.9326885500341345,0.4006587663399223,-0.06471553739489799,0.8199549971393237,1.170132104590825,0.7496744462229193,0.06068082008886262,1.075297699147075,0.759380896158154,0.2760593605574095,0.06074008944894198,0.6565572861657217,0.04805115247063001,-0.2530513898254112,-0.3815938439608152,0.1248661401256437,787.7289377289378,802.6373626373627,803.8461538461539,733.7362637362637,653.956043956044,0.214233,0.067505,0.981506,-0.127106,-1.278534,-0.852356,446446.886447,105347765.567766,36872967.032967,112.592743,1,1,1,1,1,100.000000
2568-11-17 11:25:31.751,1.045856973970361,0.5221636659229841,0.1477880988793094,1.31054327000923,0.9326885500341345,0.2257147117508488,-0.0080614151821216,0.8199549971393237,1.170132104590825,0.4081455505400449,0.030207678195441,1.075297699147075,0.759380896158154,0.2191235139486605,-0.007168132313395113,0.6565572861657217,0.04805115247063001,-0.2307872414816397,-0.3107867442420374,0.1248661401256437,682.1611721611722,800.6227106227107,781.6849816849817,695.4578754578755,476.6666666666667,0.215454,0.068604,0.985596,-0.986938,-0.710297,0.149536,447252.747253,105326007.326007,36857655.677656,112.592743,1,2,1,1,2,100.000000
2568-11-17 11:25:31.895,,,,,,,,,,,,,,,,,,,,,,,,,,,,,,,,,,,,,,,,,,/muse/elements/blink
2568-11-17 11:25:32.752,1.045856973970361,0.6160227936712215,0.3779678720985598,1.31054327000923,0.9326885500341345,0.01363545404942559,0.1271777328365211,0.8199549971393237,1.170132104590825,0.2566608385636173,0.352609739203248,1.075297699147075,0.759380896158154,0.235708707763079,-0.09119827478072522,0.6565572861657217,0.04805115247063001,-0.223770481111735,-0.3439691607719176,0.1248661401256437,901.7582417582418,817.948717948718,801.025641025641,690.2197802197802,688.2051282051282,0.232483,0.072205,0.974243,-1.809387,-1.076660,-0.957031,447252.747253,105089084.249084,36831868.131868,112.592743,1,2,1,1,2,100.000000
2568-11-17 11:25:33.755,1.045856973970361,0.7292395377722261,0.5349889405221832,1.31054327000923,0.9326885500341345,0.3180479731130773,0.1767880221345486,0.8199549971393237,1.170132104590825,0.6100767201500357,0.3901569377722336,1.075297699147075,0.759380896158154,0.4228150689493224,0.04755372073123618,0.6565572861657217,0.04805115247063001,-0.2712958140519944,-0.2545943978035126,0.1248661401256437,776.8498168498169,809.8901098901099,810.2930402930403,707.1428571428571,892.4908424908425,0.226257,0.074402,0.978699,-0.650482,-1.786957,0.157013,446446.886447,104966593.406593,36856849.816850,112.592743,1,2,1,1,2,100.000000
2568-11-17 11:25:34.764,1.045856973970361,0.8490847517620973,0.6770560599044292,1.309115055407388,0.9326885500341345,0.2811456658570635,0.2553843557156385,1.336959528541098,1.170132104590825,0.6722237894629995,0.3071594834740089,1.67628517268832,0.759380896158154,0.4351320219497402,0.1454417610113859,0.9348123715870267,0.04805115247063001,-0.3169816289803341,-0.4679749374648204,0.428106657744963,787.7289377289378,815.1282051282052,803.4432234432235,644.6886446886447,593.1135531135532,0.219177,0.068237,0.978027,-1.540222,-1.143951,-0.366364,446446.886447,104998827.838828,36862490.842491,112.592743,1,1,1,1,1,100.000000
2568-11-17 11:25:35.751,1.045856973970361,0.6151414030709985,0.962466919472891,1.309115055407388,0.9326885500341345,0.009226658056419959,0.7102170871690621,1.336959528541098,1.170132104590825,0.5859555963937827,0.906121715073843,1.67628517268832,0.759380896158154,0.223009046161178,0.4101338692929422,0.9348123715870267,0.04805115247063001,-0.3301676331589825,-0.2553002743525946,0.428106657744963,783.2967032967033,799.0109890109891,807.4725274725275,757.9120879120879,672.4908424908425,0.230591,0.066223,0.980774,-1.592560,-1.876678,1.203766,445641.025641,105119706.959707,36896336.996337,112.592743,1,1,1,1,1,100.000000
2568-11-17 11:25:36.751,1.045856973970361,0.08380082756744052,0.8361476063151001,1.300452398547692,0.9326885500341345,-0.4008530655040637,0.6262504446661471,1.385242791017519,1.170132104590825,0.1017312261138322,0.906121715073843,1.647624527773708,0.759380896158154,-0.09117501159425798,0.2729264726272365,0.9225459336393143,0.04805115247063001,-0.4303681427747707,-0.3704577308643802,0.4335229179848366,803.040293040293,804.6520146520147,804.6520146520147,664.8351648351648,767.985347985348,0.227112,0.070190,0.976868,0.157013,-1.248627,0.321503,447252.747253,105176923.076923,36926959.706960,112.592743,1,1,1,1,1,100.000000
2568-11-17 11:25:37.759,1.579023449553305,0.3607118585511658,0.01773801513171909,1.300452398547692,1.046485939976707,0.0508751012785301,0.03624780335046559,1.385242791017519,0.935624212263453,0.1150615536579626,0.4457445586796487,1.647624527773708,0.9013259499547274,0.1700999539148411,0.1063791243312932,0.9225459336393143,0.05946445934258403,-0.3574688021351748,-0.5665824026706381,0.4335229179848366,499.2307692307692,714.3956043956044,0,381.978021978022,549.5970695970697,0.223328,0.071106,0.985901,-0.807495,0.710297,-0.209351,447252.747253,105189816.849817,36996263.736264,112.592743,1,1,1,1,1,100.000000
2568-11-17 11:25:37.902,,,,,,,,,,,,,,,,,,,,,,,,,,,,,,,,,,,,,,,,,,/muse/elements/blink
2568-11-17 11:25:38.412,,,,,,,,,,,,,,,,,,,,,,,,,,,,,,,,,,,,,,,,,,/muse/elements/blink
2568-11-17 11:25:38.753,1.56775425817384,0.6562470357644667,-0.1218518372773385,1.300452398547692,0.9792325753136828,0.3217317766750289,0.06494160426619884,1.385242791017519,0.9031077967120639,0.07759409558537854,0.4364325746623805,1.647624527773708,1.016205669810186,0.2604913285799461,0.2279773572761508,0.9225459336393143,0.0699259257234438,-0.2160881408727075,-0.3899502418963247,0.4335229179848366,787.3260073260074,826.4102564102565,888.0586080586081,931.1721611721612,1073.003663003663,0.113770,0.029480,1.007568,-9.891815,23.103333,5.981445,445641.025641,106282564.102564,37676410.256410,112.592743,1,1,1,2,1,100.000000
2568-11-17 11:25:39.027,,,,,,,,,,,,,,,,,,,,,,,,,,,,,,,,,,,,,,,,,,/muse/elements/blink
2568-11-17 11:25:39.715,,,,,,,,,,,,,,,,,,,,,,,,,,,,,,,,,,,,,,,,,,/muse/elements/blink
2568-11-17 11:25:39.751,1.56775425817384,0.6958245910579862,-0.08454819671525318,1.300452398547692,0.9792325753136828,0.3472558885909567,0.02695604846989943,1.385242791017519,0.9031077967120639,0.04262034050206927,0.4268858303565498,1.647624527773708,1.016205669810186,0.2014542506813238,0.2630027571690204,0.9225459336393143,0.0699259257234438,-0.2268293071538161,-0.4191865815337976,0.4335229179848366,764.3589743589744,782.4908424908425,696.2637362637363,618.0952380952381,938.021978021978,-0.074463,-0.049072,1.037659,-2.228088,-6.258087,5.547791,464175.824176,106361538.461538,37914139.194139,112.592743,1,1,1,1,1,100.000000
2568-11-17 11:25:40.331,,,,,,,,,,,,,,,,,,,,,,,,,,,,,,,,,,,,,,,,,,/muse/elements/blink
2568-11-17 11:25:40.762,1.56775425817384,0.6958245910579862,-0.08454819671525318,1.300452398547692,0.9792325753136828,0.3472558885909567,0.02695604846989943,1.385242791017519,0.9031077967120639,0.04262034050206927,0.4268858303565498,1.647624527773708,1.016205669810186,0.2014542506813238,0.2630027571690204,0.9225459336393143,0.0699259257234438,-0.2268293071538161,-0.4191865815337976,0.4335229179848366,778.0586080586081,802.6373626373627,658.7912087912088,757.1062271062272,604.7985347985348,0.268921,0.021179,0.956116,3.229980,-34.976501,-15.073242,443223.443223,104749010.989011,37016410.256410,112.592743,1,2,1,1,2,100.000000
2568-11-17 11:25:41.751,1.56775425817384,0.6958245910579862,-0.08454819671525318,1.300452398547692,0.9792325753136828,0.3472558885909567,0.02695604846989943,1.385242791017519,0.9031077967120639,0.04262034050206927,0.4268858303565498,1.647624527773708,1.016205669810186,0.2014542506813238,0.2630027571690204,0.9225459336393143,0.0699259257234438,-0.2268293071538161,-0.4191865815337976,0.4335229179848366,801.8315018315019,832.0512820512821,781.2820512820513,791.7582417582418,753.8827838827839,0.375305,-0.009888,0.936951,-0.807495,2.280426,-1.248627,439194.139194,104734505.494505,36792380.952381,112.592743,1,2,1,1,2,100.000000
2568-11-17 11:25:42.595,,,,,,,,,,,,,,,,,,,,,,,,,,,,,,,,,,,,,,,,,,/muse/elements/blink
2568-11-17 11:25:42.753,1.56775425817384,0.6698377903563842,-0.08454819671525318,1.300452398547692,0.9792325753136828,0.04862557739159821,0.02695604846989943,1.385242791017519,0.9031077967120639,0.4581777549955462,0.4268858303565498,1.647624527773708,1.016205669810186,0.2032540322014799,0.2630027571690204,0.9225459336393143,0.0699259257234438,-0.2065066241388662,-0.4191865815337976,0.4335229179848366,850.1831501831502,819.96336996337,880.8058608058608,748.6446886446887,853.0036630036631,0.109924,-0.107788,0.977600,0.927124,6.078644,-1.106567,446446.886447,105586300.366300,37449157.509158,112.592743,1,2,1,1,2,100.000000
2568-11-17 11:25:43.123,,,,,,,,,,,,,,,,,,,,,,,,,,,,,,,,,,,,,,,,,,/muse/elements/blink
2568-11-17 11:25:43.751,1.56775425817384,0.992797732478764,-0.08454819671525318,1.300452398547692,0.9792325753136828,0.3610608660543959,0.02695604846989943,1.385242791017519,0.9031077967120639,0.3469639457558416,0.4268858303565498,1.647624527773708,1.016205669810186,0.2636194203127832,0.2630027571690204,0.9225459336393143,0.0699259257234438,-0.08438744431045921,-0.4191865815337976,0.4335229179848366,679.7435897435897,803.040293040293,785.3113553113553,0,612.8571428571429,0.070862,-0.075684,0.999268,-0.912170,10.430145,4.471130,444835.164835,104733699.633700,36920512.820513,112.592743,1,2,1,1,4,100.000000
2568-11-17 11:25:44.098,,,,,,,,,,,,,,,,,,,,,,,,,,,,,,,,,,,,,,,,,,/muse/elements/jaw_clench
2568-11-17 11:25:44.500,,,,,,,,,,,,,,,,,,,,,,,,,,,,,,,,,,,,,,,,,,/muse/elements/blink
2568-11-17 11:25:44.756,1.56775425817384,1.051292610635971,-0.08454819671525318,1.300452398547692,0.9792325753136828,0.4883593331452745,0.02695604846989943,1.385242791017519,0.9031077967120639,0.3459246120244059,0.4268858303565498,1.647624527773708,1.016205669810186,0.267109248363219,0.2630027571690204,0.9225459336393143,0.0699259257234438,-0.004864523117500553,-0.4191865815337976,0.4335229179848366,913.040293040293,958.5714285714286,880.8058608058608,1001.684981684982,622.9304029304029,-0.193787,-0.085327,0.972717,-0.014954,-7.902985,-1.525269,452087.912088,105776483.516484,37396776.556777,112.592743,1,2,1,1,4,100.000000
2568-11-17 11:25:44.786,,,,,,,,,,,,,,,,,,,,,,,,,,,,,,,,,,,,,,,,,,/muse/elements/blink
2568-11-17 11:25:45.211,,,,,,,,,,,,,,,,,,,,,,,,,,,,,,,,,,,,,,,,,,/muse/elements/blink
2568-11-17 11:25:45.755,1.56775425817384,1.051292610635971,-0.08454819671525318,1.300452398547692,0.9792325753136828,0.4883593331452745,0.02695604846989943,1.385242791017519,0.9031077967120639,0.3459246120244059,0.4268858303565498,1.647624527773708,1.016205669810186,0.267109248363219,0.2630027571690204,0.9225459336393143,0.0699259257234438,-0.004864523117500553,-0.4191865815337976,0.4335229179848366,792.1611721611722,819.1575091575091,820.7692307692308,691.4285714285714,736.5567765567765,-0.143127,-0.060974,0.995544,-0.157013,-1.166382,0.687866,452087.912088,105673333.333333,37349230.769231,112.592743,1,2,1,1,2,100.000000
2568-11-17 11:25:46.751,1.56775425817384,1.051292610635971,0.5124551218394813,1.300452398547692,0.9792325753136828,0.4883593331452745,-0.2693328153827514,1.385242791017519,0.9031077967120639,0.3459246120244059,0.244326577498843,1.647624527773708,1.016205669810186,0.267109248363219,0.7548534882773261,0.9225459336393143,0.0699259257234438,-0.004864523117500553,0.6822833021833029,0.4335229179848366,753.8827838827839,836.8864468864469,818.7545787545788,855.4212454212454,709.9633699633699,-0.115601,-0.044434,1.004883,-1.263580,-1.629944,0.844879,451282.051282,105329230.769231,37058315.018315,112.592743,1,2,1,1,2,100.000000
2568-11-17 11:25:47.047,,,,,,,,,,,,,,,,,,,,,,,,,,,,,,,,,,,,,,,,,,/muse/elements/blink
2568-11-17 11:25:47.756,1.56775425817384,0.9900646256229582,0.993074516737307,1.300452398547692,0.9792325753136828,-0.3986589789113882,0.7310775062842473,1.385242791017519,0.9031077967120639,0.09308834678742908,0.8142372942073314,1.647624527773708,1.016205669810186,0.2884604392571656,0.7749388761426815,0.9225459336393143,0.0699259257234438,-0.2119278050329922,0.5170583363239567,0.4335229179848366,778.0586080586081,799.0109890109891,800.6227106227107,789.7435897435897,934.3956043956044,-0.126831,-0.061768,0.991394,-1.921539,-1.233673,0.971985,450476.190476,105023809.523810,36757728.937729,112.592743,1,2,1,1,2,100.000000
2568-11-17 11:25:48.358,,,,,,,,,,,,,,,,,,,,,,,,,,,,,,,,,,,,,,,,,,/muse/elements/blink
2568-11-17 11:25:48.752,1.56775425817384,0.9903394704844432,1.125994899395383,1.300452398547692,0.9792325753136828,0.8436808378258659,1.02483734550638,1.385242791017519,0.9031077967120639,0.783671967384966,1.181071814741283,1.647624527773708,1.016205669810186,0.3621309079076951,0.7521185037378382,0.9225459336393143,0.0699259257234438,0.1021486059473539,0.5344661014987777,0.4335229179848366,803.040293040293,811.0989010989011,806.6666666666667,794.1758241758242,742.6007326007326,-0.103394,-0.036682,1.011414,-0.157013,-0.762634,0.127106,450476.190476,105404981.684982,36878608.058608,112.592743,1,2,1,1,2,100.000000
2568-11-17 11:25:48.796,,,,,,,,,,,,,,,,,,,,,,,,,,,,,,,,,,,,,,,,,,/muse/elements/blink
2568-11-17 11:25:49.759,1.56775425817384,1.098537349836691,1.099333414886121,1.300452398547692,0.9792325753136828,0.7391285396956978,0.797624972709254,1.385242791017519,0.9031077967120639,0.7970953684319839,1.178647066778682,1.647624527773708,1.016205669810186,0.06437816667803278,0.639505292686896,0.9225459336393143,0.0699259257234438,-0.09982048718922405,0.1964682791503016,0.4335229179848366,774.8351648351648,805.8608058608058,802.6373626373627,783.2967032967033,645.4945054945055,-0.104858,-0.061646,0.989441,-0.082245,-2.033691,-1.472931,451282.051282,105518608.058608,36904395.604396,112.592743,1,2,1,1,2,100.000000
2568-11-17 11:25:50.278,,,,,,,,,,,,,,,,,,,,,,,,,,,,,,,,,,,,,,,,,,/muse/elements/blink
2568-11-17 11:25:50.588,,,,,,,,,,,,,,,,,,,,,,,,,,,,,,,,,,,,,,,,,,/muse/elements/blink
2568-11-17 11:25:50.757,1.56775425817384,0.6318849064057639,1.008730192903415,1.300452398547692,0.9792325753136828,0.5243202576257804,0.4888043109050902,1.385242791017519,0.9031077967120639,0.8034487150332111,0.5735520149410519,1.647624527773708,1.016205669810186,0.09108267408793118,0.4977762687079323,0.9225459336393143,0.0699259257234438,-0.27194415232115,0.1673757477343802,0.4335229179848366,1377.619047619048,921.5018315018315,807.4725274725275,809.8901098901099,722.8571428571429,-0.106323,-0.055664,0.999695,-0.209351,-1.293488,-0.314026,450476.190476,105827252.747253,36913260.073260,112.592743,1,2,1,1,2,100.000000
2568-11-17 11:25:51.400,,,,,,,,,,,,,,,,,,,,,,,,,,,,,,,,,,,,,,,,,,/muse/elements/blink
2568-11-17 11:25:51.730,,,,,,,,,,,,,,,,,,,,,,,,,,,,,,,,,,,,,,,,,,/muse/elements/blink
2568-11-17 11:25:51.751,1.56775425817384,0.5690262282092803,1.13170339560289,1.300452398547692,0.9792325753136828,0.0853481863485442,0.3417945082019669,1.385242791017519,0.9031077967120639,0.3617850777939279,0.6039485522137031,1.647624527773708,1.016205669810186,0.1032453980868105,0.3502507591961435,0.9225459336393143,0.0699259257234438,-0.358276606913373,-0.053940820714203,0.4335229179848366,646.7032967032967,811.0989010989011,813.5164835164835,1566.593406593407,626.959706959707,-0.090698,-0.050781,1.002014,-0.059814,-1.517792,0.418701,451282.051282,105673333.333333,36920512.820513,112.592743,1,4,1,1,4,100.000000
2568-11-17 11:25:52.108,,,,,,,,,,,,,,,,,,,,,,,,,,,,,,,,,,,,,,,,,,/muse/elements/blink
2568-11-17 11:25:52.330,,,,,,,,,,,,,,,,,,,,,,,,,,,,,,,,,,,,,,,,,,/muse/elements/blink
2568-11-17 11:25:52.709,,,,,,,,,,,,,,,,,,,,,,,,,,,,,,,,,,,,,,,,,,/muse/elements/blink
2568-11-17 11:25:52.751,1.56775425817384,1.132363325726331,0.9426549886652842,1.300452398547692,0.9792325753136828,0.4060928678706294,-0.1170706878099422,1.385242791017519,0.9031077967120639,0.5799546925737575,0.5367361601523621,1.647624527773708,1.016205669810186,0.2846659819160681,0.4514419942441724,0.9225459336393143,0.0699259257234438,-0.283358939117945,0.2174215929191308,0.4335229179848366,498.8278388278388,807.0695970695971,805.4578754578755,856.2271062271062,679.7435897435897,-0.087646,-0.052795,0.997559,-0.710297,-2.489777,0.059814,451282.051282,105502490.842491,36886666.666667,112.592743,1,4,1,1,4,100.000000
2568-11-17 11:25:53.037,,,,,,,,,,,,,,,,,,,,,,,,,,,,,,,,,,,,,,,,,,/muse/elements/blink
2568-11-17 11:25:53.304,,,,,,,,,,,,,,,,,,,,,,,,,,,,,,,,,,,,,,,,,,/muse/elements/blink
2568-11-17 11:25:53.747,,,,,,,,,,,,,,,,,,,,,,,,,,,,,,,,,,,,,,,,,,/muse/elements/blink
2568-11-17 11:25:53.758,1.56775425817384,1.180438846436813,0.3744931194973674,1.300452398547692,0.9792325753136828,0.3569247658077234,0.4919612424524172,1.385242791017519,0.9031077967120639,0.5489200473343656,0.9882431893718834,1.647624527773708,1.016205669810186,0.2576779020957573,0.5382789289356108,0.9225459336393143,0.0699259257234438,-0.2378726547162743,0.2629540675852395,0.4335229179848366,923.1135531135532,799.8168498168499,810.2930402930403,1000.47619047619,734.1391941391942,-0.095459,-0.054016,1.005920,-0.224304,-1.622467,0.171967,452087.912088,105481538.461538,36823809.523810,112.592743,1,4,1,1,2,100.000000
2568-11-17 11:25:54.751,1.56775425817384,0.8361756057229023,0.5159798896426963,1.300452398547692,0.9792325753136828,0.2643466294214056,0.0710945741317119,1.385242791017519,0.9031077967120639,-0.03383680882986873,0.2916825634779133,1.647624527773708,1.016205669810186,0.3122238433938027,0.4977969781782903,0.9225459336393143,0.0699259257234438,-0.2131394869054613,0.2729781551833311,0.4335229179848366,730.9157509157509,855.8241758241759,801.4285714285714,802.6373626373627,686.996336996337,-0.088257,-0.046753,1.003235,-0.538330,-2.086029,0.261688,452087.912088,105463003.663004,36784322.344322,112.592743,1,2,1,1,2,100.000000
2568-11-17 11:25:55.058,,,,,,,,,,,,,,,,,,,,,,,,,,,,,,,,,,,,,,,,,,/muse/elements/blink
2568-11-17 11:25:55.385,,,,,,,,,,,,,,,,,,,,,,,,,,,,,,,,,,,,,,,,,,/muse/elements/blink
2568-11-17 11:25:55.563,,,,,,,,,,,,,,,,,,,,,,,,,,,,,,,,,,,,,,,,,,/muse/elements/blink
2568-11-17 11:25:55.755,1.56775425817384,1.25836913717576,0.4007375834999206,1.300452398547692,0.9792325753136828,0.9603743307914204,-0.127508028030029,1.385242791017519,0.9031077967120639,0.7504816593875392,0.3925969520342052,1.647624527773708,1.016205669810186,0.3848685139226822,0.4221929288509983,0.9225459336393143,0.0699259257234438,-0.269463320983572,0.1934834271475982,0.4335229179848366,792.1611721611722,792.5641025641025,795.7875457875458,829.2307692307693,868.3150183150184,-0.081604,-0.045410,1.000916,-0.246735,-0.792542,-0.164490,452087.912088,105399340.659341,36752087.912088,112.592743,1,2,1,1,4,100.000000
2568-11-17 11:25:56.506,,,,,,,,,,,,,,,,,,,,,,,,,,,,,,,,,,,,,,,,,,/muse/elements/blink
2568-11-17 11:25:56.751,1.56775425817384,1.478454196750077,0.8894529027223346,1.300452398547692,0.9792325753136828,1.217902643952952,0.3957592833585739,1.385242791017519,0.9031077967120639,0.7504816593875392,0.4033738946457352,1.647624527773708,1.016205669810186,0.4303913565809376,0.3044594815042865,0.9225459336393143,0.0699259257234438,-0.3060993062851265,-0.05761358062609438,0.4335229179848366,794.981684981685,812.7106227106227,794.981684981685,894.908424908425,734.5421245421246,-0.079041,-0.046082,1.000610,-0.171967,-1.592560,0.381317,452087.912088,105448498.168498,36756923.076923,112.592743,1,2,1,1,2,100.000000
2568-11-17 11:25:57.122,,,,,,,,,,,,,,,,,,,,,,,,,,,,,,,,,,,,,,,,,,/muse/elements/blink
2568-11-17 11:25:57.750,1.56775425817384,1.478454196750077,1.073765578974905,1.300452398547692,0.9792325753136828,1.217902643952952,0.8150290904253787,1.385242791017519,0.9031077967120639,0.7504816593875392,0.8281859778338654,1.647624527773708,1.016205669810186,0.4303913565809376,0.3756254191364585,0.9225459336393143,0.0699259257234438,-0.3060993062851265,-0.004329439970883604,0.4335229179848366,766.7765567765568,819.96336996337,817.5457875457876,848.1684981684982,740.989010989011,-0.080322,-0.046936,1.004150,-0.328979,-0.942078,-0.089722,452087.912088,105387252.747253,36756923.076923,112.592743,1,2,1,1,2,100.000000
2568-11-17 11:25:58.724,,,,,,,,,,,,,,,,,,,,,,,,,,,,,,,,,,,,,,,,,,/muse/elements/blink
2568-11-17 11:25:58.759,1.56775425817384,1.108234383679378,0.7432180933342292,1.300452398547692,0.9792325753136828,0.5654736145281682,0.5380734632881369,1.385242791017519,0.9031077967120639,0.5367565816006009,0.7249830270665997,1.647624527773708,1.016205669810186,0.2324378544925882,0.4454189035956914,0.9225459336393143,0.0699259257234438,-0.305842018250435,0.1817677198596707,0.4335229179848366,764.7619047619048,809.8901098901099,808.2783882783883,722.0512820512821,586.2637362637363,-0.073486,-0.043640,1.007568,-0.314026,-1.577606,-0.052338,452893.772894,105226886.446886,36739194.139194,112.592743,1,2,1,1,2,100.000000
2568-11-17 11:25:59.752,,,,,,,,,,,,,,,,,,,,,,,,,,,,,,,,,,,,,,,,,,/muse/elements/blink
2568-11-17 11:25:59.764,1.56775425817384,0.723138987143062,0.7657948269693274,1.300452398547692,0.9792325753136828,0.3961109295494266,0.1825796213237329,1.385242791017519,0.9031077967120639,0.4995984840990359,0.4529838157848067,1.647624527773708,1.016205669810186,0.1603012324301718,0.5757473426845727,0.9225459336393143,0.0699259257234438,-0.4508320607422168,0.2421327378567586,0.4335229179848366,699.8901098901099,804.6520146520147,809.0842490842491,1002.893772893773,850.5860805860806,-0.075500,-0.045471,1.002441,-0.269165,-0.695343,-0.299072,452087.912088,105071355.311355,36720659.340659,112.592743,1,2,1,1,2,100.000000
2568-11-17 11:26:00.166,,,,,,,,,,,,,,,,,,,,,,,,,,,,,,,,,,,,,,,,,,/muse/elements/blink
2568-11-17 11:26:00.628,,,,,,,,,,,,,,,,,,,,,,,,,,,,,,,,,,,,,,,,,,/muse/elements/blink
2568-11-17 11:26:00.751,1.56775425817384,0.6287429750755857,0.7774305966622105,1.300452398547692,0.9792325753136828,0.395540326778153,0.3376864494666432,1.385242791017519,0.9031077967120639,0.5019399551415187,0.4802680250437498,1.647624527773708,1.016205669810186,0.2851016013522102,0.5238173471318648,0.9225459336393143,0.0699259257234438,-0.2285141893821034,0.3041735275847691,0.4335229179848366,815.5311355311355,795.7875457875458,807.8754578754579,790.1465201465202,649.1208791208792,-0.076843,-0.041992,1.001770,-0.426178,-1.420593,0.560760,452087.912088,105053626.373626,36707765.567766,112.592743,1,2,1,1,2,100.000000
2568-11-17 11:26:01.661,,,,,,,,,,,,,,,,,,,,,,,,,,,,,,,,,,,,,,,,,,/muse/elements/blink
2568-11-17 11:26:01.761,1.56775425817384,0.3573514121235621,0.83164802678987,1.300452398547692,0.9792325753136828,0.1909839060195196,0.1077175921768812,1.385242791017519,0.9031077967120639,0.160798838743879,0.4507786513668005,1.647624527773708,1.016205669810186,0.1206902883738106,0.4134347309186028,0.9225459336393143,0.0699259257234438,-0.1508363514998628,0.3547306544764604,0.4335229179848366,743.0036630036631,806.6666666666667,806.2637362637363,805.4578754578755,552.8205128205128,-0.073730,-0.044556,1.001221,-0.418701,-1.338348,0.134583,451282.051282,105000439.560440,36703736.263736,112.592743,1,2,1,1,2,100.000000
2568-11-17 11:26:02.751,1.56775425817384,0.3923817657885748,0.5946280181939253,1.300452398547692,0.9792325753136828,0.1017020604198204,-0.09212012702163733,1.385242791017519,0.9031077967120639,0.4494982557941491,0.4195897759632725,1.647624527773708,1.016205669810186,0.129732623278454,0.4312454620107233,0.9225459336393143,0.0699259257234438,-0.2134479059108142,0.285278029550655,0.4335229179848366,764.7619047619048,809.4871794871796,812.3076923076924,739.3772893772893,809.8901098901099,-0.070068,-0.041260,1.002258,-0.515900,-1.330872,-0.194397,451282.051282,105014945.054945,36720659.340659,112.592743,1,2,1,1,2,100.000000
2568-11-17 11:26:03.760,1.56775425817384,0.6355067946272609,0.7204574067790185,1.300452398547692,0.9792325753136828,0.1692884657966877,0.141849828478945,1.385242791017519,0.9031077967120639,0.4641264699451275,0.5049190245480232,1.647624527773708,1.016205669810186,0.1450376992506239,0.2196024835830635,0.9225459336393143,0.0699259257234438,-0.1578208582909418,-0.08190670849127063,0.4335229179848366,738.5714285714286,808.2783882783883,806.6666666666667,877.1794871794872,674.9084249084249,-0.074280,-0.040466,1.000610,-0.448608,-1.278534,0.336456,452087.912088,105066520.146520,36757728.937729,112.592743,1,2,1,1,2,100.000000
2568-11-17 11:26:04.751,1.56775425817384,0.5447468897176089,0.5571645445357253,1.300452398547692,0.9792325753136828,-0.10300681059795,-0.119332033900689,1.385242791017519,0.9031077967120639,0.3200597254021942,0.2455318830519632,1.647624527773708,1.016205669810186,0.1600992180328207,0.07406965915340927,0.9225459336393143,0.0699259257234438,-0.1566567307744376,-0.2080825617882335,0.4335229179848366,778.4615384615385,797.3992673992674,812.7106227106227,764.7619047619048,636.6300366300367,-0.076111,-0.041931,1.006104,0.216827,-1.510315,-0.149536,452087.912088,105131794.871795,36773040.293040,112.592743,1,2,1,1,2,100.000000
2568-11-17 11:26:05.760,1.56775425817384,0.5607963391457974,0.4679421408701088,1.300452398547692,0.9792325753136828,0.01402839992513352,0.04651378665153812,1.385242791017519,0.9031077967120639,0.3391999425787534,0.08250099903893862,1.647624527773708,1.016205669810186,0.003196835711141616,0.1667432544396188,0.9225459336393143,0.0699259257234438,-0.2623459805414576,-0.1104988791559161,0.4335229179848366,768.3882783882784,807.4725274725275,810.6959706959707,823.992673992674,780.4761904761905,-0.071411,-0.037781,1.004456,-0.007477,-1.719666,0.209351,451282.051282,104947252.747253,36754505.494505,112.592743,1,2,1,1,2,100.000000
2568-11-17 11:26:06.446,,,,,,,,,,,,,,,,,,,,,,,,,,,,,,,,,,,,,,,,,,/muse/elements/blink
2568-11-17 11:26:06.732,,,,,,,,,,,,,,,,,,,,,,,,,,,,,,,,,,,,,,,,,,/muse/elements/blink
2568-11-17 11:26:06.751,1.56775425817384,0.5494861647676095,0.33135749966034,1.300452398547692,0.9792325753136828,0.06327276839306363,0.1537865000415139,1.385242791017519,0.9031077967120639,0.2266267150268538,0.2264946227505505,1.647624527773708,1.016205669810186,0.05474011491768317,0.216760372535451,0.9225459336393143,0.0699259257234438,-0.05960659136101937,-0.1887786991862264,0.4335229179848366,672.0879120879121,799.4139194139194,811.0989010989011,750.2564102564103,640.2564102564103,-0.075500,-0.043030,1.000244,-0.710297,-0.792542,-0.261688,451282.051282,104985934.065934,36777069.597070,112.592743,1,2,1,1,2,100.000000
2568-11-17 11:26:07.464,,,,,,,,,,,,,,,,,,,,,,,,,,,,,,,,,,,,,,,,,,/muse/elements/blink
2568-11-17 11:26:07.762,1.56775425817384,0.5050517975904882,0.5628694926350376,1.300452398547692,0.9792325753136828,-0.09484437943556963,0.191240823706373,1.385242791017519,0.9031077967120639,0.199151488371031,0.3108767697000607,1.647624527773708,1.016205669810186,0.136042728948661,0.2690402239657558,0.9225459336393143,0.0699259257234438,0.08042802055492844,-0.1522017571957736,0.4335229179848366,863.0769230769231,813.1135531135532,783.2967032967033,789.7435897435897,479.0842490842491,-0.074951,-0.047424,1.000244,-0.336456,-2.041168,0.239258,452087.912088,104881978.021978,36794798.534799,112.592743,1,2,1,1,2,100.000000
2568-11-17 11:26:08.756,1.56775425817384,0.4222082173624722,0.6948110385200095,1.300452398547692,0.9792325753136828,0.1769817958156271,0.3444555946767757,1.385242791017519,0.9031077967120639,0.2250830004878898,0.2279557197839164,1.647624527773708,1.016205669810186,0.1331488907610884,0.3156068715776287,0.9225459336393143,0.0699259257234438,0.08387926595206839,-0.04210240744014887,0.4335229179848366,431.1355311355312,817.948717948718,793.7728937728938,825.6043956043957,745.8241758241759,-0.074280,-0.042542,1.005493,-0.291595,-1.697235,0.471039,451282.051282,104889230.769231,36807692.307692,112.592743,1,2,1,1,2,100.000000
2568-11-17 11:26:09.320,,,,,,,,,,,,,,,,,,,,,,,,,,,,,,,,,,,,,,,,,,/muse/elements/blink
2568-11-17 11:26:09.751,1.56775425817384,0.5685314479383747,0.4175340009802585,1.300452398547692,0.9792325753136828,0.1616400742944749,0.1622506667447141,1.385242791017519,0.9031077967120639,0.2310827465296539,0.2166974704527113,1.647624527773708,1.016205669810186,0.1027966503440955,0.1380129995535662,0.9225459336393143,0.0699259257234438,0.1522148475228803,-0.004875081071759455,0.4335229179848366,863.0769230769231,806.2637362637363,801.4285714285714,620.5128205128206,559.6703296703297,-0.070923,-0.040405,1.006165,-0.254211,-1.435547,0.261688,452087.912088,104930329.670330,36845567.765568,112.592743,1,2,1,1,2,100.000000
2568-11-17 11:26:10.002,,,,,,,,,,,,,,,,,,,,,,,,,,,,,,,,,,,,,,,,,,/muse/elements/blink
