TimeStamp,Delta_TP9,Delta_AF7,Delta_AF8,Delta_TP10,Theta_TP9,Theta_AF7,Theta_AF8,Theta_TP10,Alpha_TP9,Alpha_AF7,Alpha_AF8,Alpha_TP10,Beta_TP9,Beta_AF7,Beta_AF8,Beta_TP10,Gamma_TP9,Gamma_AF7,Gamma_AF8,Gamma_TP10,RAW_TP9,RAW_AF7,RAW_AF8,RAW_TP10,AUX_RIGHT,Accelerometer_X,Accelerometer_Y,Accelerometer_Z,Gyro_X,Gyro_Y,Gyro_Z,PPG_Ambient,PPG_IR,PPG_Red,Heart_Rate,HeadBandOn,HSI_TP9,HSI_AF7,HSI_AF8,HSI_TP10,Battery,Elements
2568-11-19 11:58:51.071,,,,,,,,,,,,,,,,,,,,,,,,,,,,,,,,,,,,,,,,,,/muse/event/connected Muse-2184
2568-11-19 11:58:51.313,,,,,,,,,,,,,,,,,,,,,,,,,,,,,,,,,,,,,,,,,,/muse/elements/blink
2568-11-19 11:58:51.385,,,,,,,,,,,,,,,,,,,,,,,,,,,,,,,,,,,,,,,,,,/muse/elements/blink
2568-11-19 11:58:51.444,,,,,,,,,,,,,,,,,,,,,,,,,,,,,,,,,,,,,,,,,,/muse/elements/blink
2568-11-19 11:58:51.451,,,,,,,,,,,,,,,,,,,,,,,,,,,,,,,,,,,,,,,,,,/muse/elements/blink
2568-11-19 11:58:51.502,,,,,,,,,,,,,,,,,,,,,,,,,,,,,,,,,,,,,,,,,,/muse/elements/blink
2568-11-19 11:58:51.666,,,,,,,,,,,,,,,,,,,,,,,,,,,,,,,,,,,,,,,,,,/muse/elements/blink
2568-11-19 11:58:52.090,0.5226239058210723,0.1656393960739252,0.4225304993650729,0.02649720665407039,0.1007934320975854,0.2871307807075327,0.6598066807839259,0.3995521274475829,0.46513776710773,0.5937553358061668,0.7261548340370728,1.024288270109935,0.456227379129682,0.2147674122012379,0.31434125545922,1.130347692703485,0.05767158972063705,-0.1212216883010248,0.04592287640748583,1.168121656785123,736.5567765567765,805.0549450549451,815.5311355311355,783.6996336996338,716.8131868131868,-0.032104,0.023071,1.002625,-0.291595,-1.727142,-1.091614,366666.666667,86316556.776557,25163003.663004,112.592743,1,1,1,1,1,35.000000
2568-11-19 11:58:53.034,,,,,,,,,,,,,,,,,,,,,,,,,,,,,,,,,,,,,,,,,,/muse/elements/blink
2568-11-19 11:58:53.085,0.7069123564024292,0.2165615151664341,0.5967422706014052,0.3403982410589808,0.4803767265698513,0.2804609314799648,0.5052847560147418,0.5599379830267792,0.6130761432854952,0.6262351596299788,0.3709008462754731,1.352895229839693,0.5893878737324075,0.3460308507416644,0.2063980466547035,1.164786822305432,0.3844520306375755,-0.02477529422071584,0.06281337182738424,0.921120808137709,668.4615384615385,799.0109890109891,800.6227106227107,699.0842490842491,531.0622710622711,-0.039185,0.025757,0.999756,0.164490,-1.121521,0.493469,365054.945055,86143296.703297,25110622.710623,112.592743,1,1,1,1,1,35.000000
2568-11-19 11:58:54.078,0.5581083986153886,0.4601764087489489,0.6582902504032128,0.3567260884056472,0.3967474353225429,0.2343470488185165,0.2287700166465143,0.6143772695630108,0.7343399648907315,0.4062353659293092,0.398111237615938,1.152828370884761,0.5048402031718964,0.3259207167799771,0.2663924400398301,1.085860498202403,0.3880796803279473,0.05536036172589634,-0.03985148511097352,0.9057371582041617,759.92673992674,810.6959706959707,793.7728937728938,778.8644688644689,731.7216117216118,-0.040527,0.027405,1.002625,-0.792542,-1.525269,-0.493469,365054.945055,86241611.721612,25089670.329670,112.592743,1,1,1,1,1,35.000000
2568-11-19 11:58:54.552,,,,,,,,,,,,,,,,,,,,,,,,,,,,,,,,,,,,,,,,,,/muse/elements/blink
2568-11-19 11:58:54.744,,,,,,,,,,,,,,,,,,,,,,,,,,,,,,,,,,,,,,,,,,/muse/elements/blink
2568-11-19 11:58:55.079,0.2030711997297085,0.4661605269818657,0.3515423689557138,0.3491719670379026,0.4944960571978304,0.244167821211504,0.2360103647295059,0.5296327090857988,0.815215777961249,0.3948285186868994,0.7583317642784505,1.069644372419348,0.6510792742990811,0.3059556749565353,0.599507584299583,1.087033045587975,0.4540185344624856,-0.001764365403757574,0.1890483137491195,0.8993589277518115,815.5311355311355,814.7252747252747,797.3992673992674,813.919413919414,676.1172161172161,-0.045593,0.026794,0.997070,0.216827,-0.957031,0.171967,366666.666667,86094139.194139,25044542.124542,112.592743,1,1,1,1,1,35.000000
2568-11-19 11:58:55.876,,,,,,,,,,,,,,,,,,,,,,,,,,,,,,,,,,,,,,,,,,/muse/elements/blink
2568-11-19 11:58:56.100,0.2276212663570518,0.3812201459172579,0.1509688230743101,0.4517441359100119,0.4461816987648081,0.2391421088401177,0.03543097251201689,0.5086753401144194,0.8541619350482778,0.5063617045680319,0.7603161894772534,1.011087514748384,0.6569955398669909,0.3002767200694447,0.4754449402274552,1.082989400097497,0.3644403319438793,-0.007727875460908896,0.244522776449788,1.06748875699372,705.934065934066,804.2490842490843,790.5494505494506,760.3296703296703,603.992673992674,-0.036682,0.029785,0.998901,-0.029907,-1.659851,-0.149536,366666.666667,86152161.172161,25038901.098901,112.592743,1,1,1,1,1,35.000000
2568-11-19 11:58:57.103,0.5029897538122684,0.5208678828898802,0.4009655210000608,0.3070995143774836,0.5062928925166791,0.1973941792341536,0.09032856074323169,0.535945699764923,0.8050083033247932,0.4822561540151538,0.546163949303673,0.9789966656229077,0.4397949690181492,0.1159891113935171,0.4000591769348973,1.130880659228332,0.2694439318646352,-0.05424008756752005,0.07730306128234953,1.170654563324312,685.7875457875458,800.6227106227107,798.2051282051282,734.1391941391942,460.5494505494506,-0.035339,0.034851,1.002319,0.164490,-0.882263,-0.224304,363443.223443,85963589.743590,25010695.970696,112.592743,1,1,1,1,1,35.000000
2568-11-19 11:58:57.156,,,,,,,,,,,,,,,,,,,,,,,,,,,,,,,,,,,,,,,,,,/muse/elements/blink
2568-11-19 11:58:57.409,,,,,,,,,,,,,,,,,,,,,,,,,,,,,,,,,,,,,,,,,,/muse/elements/blink
2568-11-19 11:58:58.107,0.5090237939158958,0.8693232702979161,0.4397533943961045,0.376099491728253,0.5382097181111024,0.5325724983298729,0.276134597485131,0.7266011671676008,0.6454874915391511,0.3392478684173183,0.4333284438133062,0.8132246837237546,0.4652486148743891,0.1461845710986085,0.3661240152391236,1.120342532074265,0.4163005572242748,0.03569903246572115,0.03279911910090135,1.229555631752084,794.981684981685,794.5787545787546,793.7728937728938,774.4322344322345,516.5567765567765,-0.037903,0.034729,1.008423,-0.643005,-1.899109,-0.097198,365860.805861,85972454.212454,25021978.021978,112.592743,1,1,1,1,1,35.000000
2568-11-19 11:58:58.529,,,,,,,,,,,,,,,,,,,,,,,,,,,,,,,,,,,,,,,,,,/muse/elements/blink
2568-11-19 11:58:59.107,0.6300845630485554,0.9726600765692993,0.7378384721634366,0.5390552116518538,0.552536689816285,0.6420805275742775,0.114463969665374,0.7236507198911544,0.7408277726674836,0.2081704752820666,0.6455797070323667,1.019057989835058,0.5110471318580562,0.2284482167277989,0.377517416355898,1.308989629337725,0.5266679979360455,-0.1083082072679197,0.005566702043287504,1.201139063467886,714.3956043956044,784.9084249084249,797.8021978021978,777.2527472527473,621.3186813186813,-0.027649,0.029297,0.999146,-0.029907,-1.734619,0.194397,366666.666667,85851575.091575,24989743.589744,112.592743,1,1,1,1,1,35.000000
2568-11-19 11:58:59.837,,,,,,,,,,,,,,,,,,,,,,,,,,,,,,,,,,,,,,,,,,/muse/elements/blink
2568-11-19 11:59:00.088,0.550164237642924,0.2044482294118468,0.7857402198727638,0.405885579729306,0.5192756741276906,0.08649536964393122,0.0464468191026126,0.5370108141084335,0.8709618178038802,0.5892518275601707,0.6551087447368369,1.159494412451339,0.5713874782716084,0.3599539630505242,0.4156039499710875,1.08801068569968,0.3582443232645292,-0.07137325876503392,0.2068620651063381,1.102327778383965,666.0439560439561,798.2051282051282,797.8021978021978,721.2454212454213,422.6739926739927,-0.031189,0.026611,1.004211,-0.807495,-1.256104,-0.403748,366666.666667,85831428.571429,24981684.981685,112.592743,1,1,1,1,1,35.000000
2568-11-19 11:59:00.974,,,,,,,,,,,,,,,,,,,,,,,,,,,,,,,,,,,,,,,,,,/muse/elements/blink
2568-11-19 11:59:01.078,0.6928147572533894,0.8353515928476158,0.9798921348098749,0.7862550012497741,0.5129540582765121,0.4101976224908074,0.1830273527324215,0.3994158857487062,0.8304543396521868,0.694430397990341,0.2892667906947278,1.137372593450967,0.6238957640092843,0.2966312479212481,0.3769867339211794,1.141526000276992,0.387657609363326,0.09048104843385368,0.2147277632066499,1.072928642069838,777.2527472527473,796.5934065934066,796.5934065934066,776.8498168498169,420.6593406593407,-0.021484,0.031982,1.004333,0.254211,-2.011261,-0.044861,365054.945055,85845934.065934,25002637.362637,112.592743,1,1,1,1,1,35.000000
2568-11-19 11:59:01.133,,,,,,,,,,,,,,,,,,,,,,,,,,,,,,,,,,,,,,,,,,/muse/elements/blink
2568-11-19 11:59:01.439,,,,,,,,,,,,,,,,,,,,,,,,,,,,,,,,,,,,,,,,,,/muse/elements/blink
2568-11-19 11:59:01.636,,,,,,,,,,,,,,,,,,,,,,,,,,,,,,,,,,,,,,,,,,/muse/elements/blink
2568-11-19 11:59:01.636,,,,,,,,,,,,,,,,,,,,,,,,,,,,,,,,,,,,,,,,,,/muse/elements/jaw_clench
2568-11-19 11:59:01.839,,,,,,,,,,,,,,,,,,,,,,,,,,,,,,,,,,,,,,,,,,/muse/elements/blink
2568-11-19 11:59:02.086,0.4088159805563821,1.033250551815833,1.0414018255906,0.7862550012497741,0.2553886715650882,0.566683613219732,0.2055449899148938,0.3994158857487062,0.7106399096258329,0.6289564469364893,0.2616197514186328,1.137372593450967,0.6582221914590075,0.3796277219363371,0.4664423645024949,1.141526000276992,0.4460800705025058,0.1148505692153717,0.036113529635104,1.072928642069838,674.5054945054945,781.2820512820513,790.1465201465202,709.1575091575091,607.6190476190476,-0.025146,0.041931,1.005066,-0.171967,-0.657959,-1.801910,367472.527473,86210989.010989,25175897.435897,112.592743,1,1,1,1,1,35.000000
2568-11-19 11:59:02.336,,,,,,,,,,,,,,,,,,,,,,,,,,,,,,,,,,,,,,,,,,/muse/elements/blink
2568-11-19 11:59:03.101,0.4088159805563821,0.7871248112841384,1.0414018255906,0.7862550012497741,0.2553886715650882,0.08596679058402067,0.2055449899148938,0.3994158857487062,0.7106399096258329,0.2541184379782581,0.2616197514186328,1.137372593450967,0.6582221914590075,0.3602278275250171,0.4664423645024949,1.141526000276992,0.4460800705025058,-0.04979488922199227,0.036113529635104,1.072928642069838,849.7802197802198,818.7545787545788,806.2637362637363,826.007326007326,987.5824175824176,-0.008972,0.019775,1.006470,-0.366364,-3.267365,0.598145,369084.249084,86044981.684982,25161391.941392,112.592743,1,1,1,1,1,35.000000
2568-11-19 11:59:03.754,,,,,,,,,,,,,,,,,,,,,,,,,,,,,,,,,,,,,,,,,,/muse/elements/blink
2568-11-19 11:59:04.107,0.4844024442098058,0.3055322519521866,0.5063886363610119,0.1821980053948644,0.6513834508275141,0.5240377861833251,0.2816325041436994,0.3469308661751732,0.7393166471978577,0.4624453588322368,0.4554733570599703,0.2501673883761701,0.6039176336498191,0.3807580636662342,0.3543542097703035,1.081339853651798,0.5198187333205924,0.265254312586001,0.02226978777355721,1.217316934809036,772.014652014652,815.1282051282052,786.1172161172161,784.5054945054945,427.9120879120879,-0.021545,0.050354,1.001221,-0.889740,-1.061707,0.388794,365860.805861,85870109.890110,25109010.989011,112.592743,1,1,1,1,1,35.000000
2568-11-19 11:59:04.205,,,,,,,,,,,,,,,,,,,,,,,,,,,,,,,,,,,,,,,,,,/muse/elements/blink
2568-11-19 11:59:04.999,,,,,,,,,,,,,,,,,,,,,,,,,,,,,,,,,,,,,,,,,,/muse/elements/blink
2568-11-19 11:59:05.092,0.4630273947179667,0.8386565312701206,0.6846637463726675,0.1821980053948644,0.6525267115687702,0.3340696687088981,0.2426720412031112,0.3469308661751732,0.6806096347336933,0.4837200590498595,0.4407872946430128,0.2501673883761701,0.5693020520126844,0.3645435083926678,0.4362095421051715,1.081339853651798,0.5226980496901572,0.1301085650453351,0.08579668185187404,1.217316934809036,762.7472527472528,780.0732600732601,778.8644688644689,779.2673992673992,769.1941391941392,-0.006775,0.037109,1.004944,0.299072,-3.364563,0.186920,367472.527473,86061098.901099,25140439.560440,112.592743,1,1,1,1,1,35.000000
2568-11-19 11:59:06.103,0.4630273947179667,0.9121970484535574,1.060493115769362,0.1821980053948644,0.6525267115687702,0.2598983160869323,0.8268673888905369,0.3469308661751732,0.6806096347336933,0.3701030092488053,1.159370930677517,0.2501673883761701,0.5693020520126844,0.4000764894740115,0.8251600685553426,1.081339853651798,0.5226980496901572,0.1306319228349308,0.06510076071128364,1.217316934809036,657.5824175824176,778.8644688644689,788.5347985347986,713.5897435897436,604.3956043956044,-0.009521,0.039062,1.007202,0.089722,-1.772003,-0.142059,365860.805861,85870109.890110,25103369.963370,112.592743,1,1,1,1,1,35.000000
2568-11-19 11:59:06.307,,,,,,,,,,,,,,,,,,,,,,,,,,,,,,,,,,,,,,,,,,/muse/elements/blink
2568-11-19 11:59:07.082,0.5829758221343827,0.6806743248228841,0.948550933969038,0.2664059010922841,0.4669976977344056,0.328365180424074,0.7375269162472922,0.2102305708548795,0.523000662139802,0.4949008592461844,1.158072791332465,1.016604018779796,0.3782398457608888,0.3842889888476738,0.6817240919501675,1.245914100314664,0.3510935103485587,0.0786023401140715,0.3148208564514421,1.32419986701992,869.1208791208792,799.8168498168499,805.0549450549451,839.3040293040293,695.8608058608058,-0.026672,0.032532,1.007568,-1.704712,-1.637421,-0.500946,365860.805861,85877362.637363,25110622.710623,112.592743,1,1,1,1,1,35.000000
2568-11-19 11:59:07.638,,,,,,,,,,,,,,,,,,,,,,,,,,,,,,,,,,,,,,,,,,/muse/elements/blink
2568-11-19 11:59:08.113,0.5587855103937761,0.5264199536418762,0.8370537094639412,0.5541095644939505,0.3220282554130052,0.1939088631933002,0.2339522738659861,0.4303493186156204,0.7085699810086882,0.489477683277318,0.602169198232262,0.9668648181229427,0.5787120891536394,0.3348541605029878,0.3229332419110251,1.23233090775849,0.1991362147697648,0.198256771063107,0.1966543926494952,1.302753543711852,727.2893772893773,819.96336996337,782.893772893773,759.1208791208792,621.3186813186813,-0.041016,0.013428,1.005859,-4.710388,5.487976,1.757050,367472.527473,85712967.032967,25071135.531136,112.592743,1,1,1,1,1,35.000000
2568-11-19 11:59:08.962,,,,,,,,,,,,,,,,,,,,,,,,,,,,,,,,,,,,,,,,,,/muse/elements/blink
2568-11-19 11:59:09.112,0.56148032888902,0.8246755515889946,0.6809068644767268,0.5067024479258039,0.4862177569665583,0.4426313592264781,0.3018006205615154,0.5100460473661239,0.7615986206071785,0.5535931586527035,0.7524145931984509,1.189330027887523,0.7085620699011861,0.5070656818985735,0.5653933718789826,1.286322514051969,0.3353842444224871,0.2064372196155906,0.1060558495971077,1.289086418429225,860.2564102564103,811.0989010989011,796.996336996337,802.2344322344322,657.1794871794872,-0.048645,0.015686,1.002502,0.022430,-3.701019,1.764526,366666.666667,85803223.443223,25099340.659341,112.592743,1,1,1,1,1,35.000000
2568-11-19 11:59:10.077,1.004904724798529,1.032818583847905,0.8124243482050986,0.7360528388808434,0.7475115083966239,0.5589110898144038,0.3545719065132276,0.4545519452253654,0.9507948373772318,0.8027238956637576,0.6954319005081829,1.184163745731359,0.6715073194165446,0.5026831271175179,0.5698767747589829,1.241614575139776,0.2228826916495033,0.1096718123473306,0.2126304495890692,1.214896909713796,806.2637362637363,808.2783882783883,800.6227106227107,821.5750915750916,662.8205128205128,-0.037598,0.016357,1.000305,0.291595,-2.856140,-1.308441,366666.666667,85653333.333333,25080805.860806,112.592743,1,1,1,1,1,35.000000
2568-11-19 11:59:10.099,,,,,,,,,,,,,,,,,,,,,,,,,,,,,,,,,,,,,,,,,,/muse/elements/blink
2568-11-19 11:59:11.101,0.7159104773946713,0.4998869076611697,0.6792362968078708,0.692400756119681,0.2819043797014186,0.2397569782897136,0.2916037828982385,0.2673475599468405,0.774130650361465,0.8722194515449626,0.6012313726058776,1.318168048911242,0.5737376348753292,0.3710070428355805,0.5504390086796704,1.516797152018908,0.1810115419296403,0.2126195084049291,0.4074345996438276,1.24340516082514,688.2051282051282,812.7106227106227,808.2783882783883,730.9157509157509,637.032967032967,-0.028320,0.006042,0.998352,-0.538330,-1.353302,-1.315918,369084.249084,85845934.065934,25109010.989011,112.592743,1,1,1,1,1,35.000000
2568-11-19 11:59:11.398,,,,,,,,,,,,,,,,,,,,,,,,,,,,,,,,,,,,,,,,,,/muse/elements/blink
2568-11-19 11:59:12.112,0.5440697444982708,0.09270105801002673,0.6293811429474387,0.8659715694633643,0.2881928031527901,0.1617440893181971,0.3629583105802258,0.2800500390406352,0.5297249645418247,0.6474858941941573,0.5922903811161433,1.284648984009125,0.4021399888702931,0.3553087564127656,0.5312832781853387,1.686538567820917,0.2183910638591654,0.2102964390679777,0.5604670758179517,1.296910787376963,700.6959706959707,793.7728937728938,806.6666666666667,659.1941391941392,190.5860805860806,-0.051270,0.011108,0.996826,0.882263,-1.719666,-0.717773,368278.388278,85690402.930403,25088058.608059,112.592743,1,1,1,1,1,35.000000
2568-11-19 11:59:12.516,,,,,,,,,,,,,,,,,,,,,,,,,,,,,,,,,,,,,,,,,,/muse/elements/blink
2568-11-19 11:59:13.117,0.8315765642668842,0.8539613273765626,0.6515951566072742,0.7055567093704181,0.746177262080203,0.5301673768236014,0.2316506421584019,0.4637787282336986,0.6583179180973069,0.6312274529821652,0.5128174643972419,1.349248581620185,0.7418506136603765,0.554095709596085,0.5522848515661943,1.48693993007132,0.2639252167884604,0.1664748988734765,0.4367745589647408,1.277820139943577,892.0879120879121,808.2783882783883,766.3736263736264,846.1538461538462,751.8681318681319,-0.047119,0.038696,1.002686,-0.007477,-1.375732,1.704712,369084.249084,85729084.249084,25096117.216117,112.592743,1,1,1,1,1,35.000000
2568-11-19 11:59:13.820,,,,,,,,,,,,,,,,,,,,,,,,,,,,,,,,,,,,,,,,,,/muse/elements/blink
2568-11-19 11:59:14.113,0.6985894998233204,0.9994241960619583,0.6864317323050589,0.5624617525094674,0.7660772311129856,0.6030140464314513,0.007533844922105631,0.3895260541553342,0.7193717774475215,0.3510403874331934,0.5432942510739195,1.373927280384258,0.6942988922107385,0.401491646099273,0.5776694612054359,1.425716727648805,0.3309682172926038,0.004662874534151641,0.3870466965482022,1.24801872238297,646.3003663003664,807.8754578754579,787.7289377289378,591.5018315018315,155.1282051282051,-0.023193,0.035095,1.006348,0.396271,-2.145844,-0.343933,365860.805861,85594505.494505,25067912.087912,112.592743,1,1,1,1,1,35.000000
2568-11-19 11:59:15.072,0.5414830403626862,0.795575504577502,0.7464355728194169,0.3532531998130247,0.6590896668613351,0.488031018849134,0.2250315943662676,0.3027174664905968,0.6787963701990373,0.1279941365638565,0.5093727481968267,1.190141018375818,0.6278042082628876,0.2349283327711666,0.4554385544489315,1.316792257140212,0.3172152914281878,-0.002026083723264502,0.3226584572853639,1.175008534417116,665.6410256410256,815.934065934066,776.8498168498169,742.6007326007326,920.2930402930403,-0.036011,0.023743,1.000122,-1.315918,-2.071075,-0.837402,365860.805861,85791941.391941,25100146.520147,112.592743,1,1,1,1,1,35.000000
2568-11-19 11:59:16.072,0.5414830403626862,0.795575504577502,0.7464355728194169,0.3532531998130247,0.6590896668613351,0.488031018849134,0.2250315943662676,0.3027174664905968,0.6787963701990373,0.1279941365638565,0.5093727481968267,1.190141018375818,0.6278042082628876,0.2349283327711666,0.4554385544489315,1.316792257140212,0.3172152914281878,-0.002026083723264502,0.3226584572853639,1.175008534417116,665.6410256410256,815.934065934066,776.8498168498169,742.6007326007326,920.2930402930403,-0.036011,0.023743,1.000122,-1.315918,-2.071075,-0.837402,365860.805861,85791941.391941,25100146.520147,112.592743,1,1,1,1,1,35.000000
2568-11-19 11:59:16.506,,,,,,,,,,,,,,,,,,,,,,,,,,,,,,,,,,,,,,,,,,/muse/event/disconnected Muse-2184
2568-11-19 11:59:26.582,,,,,,,,,,,,,,,,,,,,,,,,,,,,,,,,,,,,,,,,,,/muse/event/connected Muse-2184
2568-11-19 11:59:27.071,0.5414830403626862,0.795575504577502,0.7464355728194169,0.3532531998130247,0.6590896668613351,0.488031018849134,0.2250315943662676,0.3027174664905968,0.6787963701990373,0.1279941365638565,0.5093727481968267,1.190141018375818,0.6278042082628876,0.2349283327711666,0.4554385544489315,1.316792257140212,0.3172152914281878,-0.002026083723264502,0.3226584572853639,1.175008534417116,788.9377289377289,824.7985347985348,778.8644688644689,761.5384615384615,525.4212454212454,-0.051392,0.038879,0.995728,0.067291,-1.831818,-0.014954,365054.945055,85551794.871795,24955091.575092,112.592743,1,1,1,1,1,35.000000
2568-11-19 11:59:28.130,0,0,0,0,0,0,0,0,0,0,0,0,0,0,0,0,0,0,0,0,891.2820512820513,817.948717948718,800.6227106227107,912.2344322344322,1463.040293040293,-0.053650,0.036865,1.002686,-0.680389,-1.181335,-0.463562,364249.084249,85638021.978022,24972014.652015,112.592743,0,4,4,4,4,35.000000
2568-11-19 11:59:29.119,0,0,0,0,0,0,0,0,0,0,0,0,0,0,0,0,0,0,0,0,769.5970695970697,806.6666666666667,797.3992673992674,794.981684981685,1112.087912087912,-0.042114,0.035767,1.001221,0.059814,-1.966400,0.201874,363443.223443,85560659.340659,24935750.915751,112.592743,0,4,4,4,4,35.000000
2568-11-19 11:59:29.630,,,,,,,,,,,,,,,,,,,,,,,,,,,,,,,,,,,,,,,,,,/muse/elements/blink
2568-11-19 11:59:30.021,,,,,,,,,,,,,,,,,,,,,,,,,,,,,,,,,,,,,,,,,,/muse/elements/blink
2568-11-19 11:59:30.075,0,0,1.142134029075212,0,0,0,0.7065519079622463,0,0,0,0.5800303794073924,0,0,0,0.6897398518440336,0,0,0,0.06082523704532734,0,856.2271062271062,801.8315018315019,789.7435897435897,848.5714285714286,747.8388278388279,-0.054138,0.035461,1.005005,2.377625,0.351410,-1.585083,365860.805861,85496996.336996,24951062.271062,112.592743,1,2,1,1,2,35.000000
2568-11-19 11:59:30.839,,,,,,,,,,,,,,,,,,,,,,,,,,,,,,,,,,,,,,,,,,/muse/elements/blink
2568-11-19 11:59:31.114,0,0.7173106651240763,0.8386421644275446,0,0,0.6392012406589519,0.6689092721640856,0,0,0.7546069172804061,0.6726100748583359,0,0,0.4766998694485944,0.4707253774649811,0,0,0.3134774919730899,0.1530429816407188,0,859.047619047619,808.2783882783883,808.6813186813187,898.5347985347986,853.4065934065934,-0.068909,0.087158,0.996582,1.375732,-1.024323,2.616882,366666.666667,85422857.142857,24913186.813187,112.592743,1,2,1,1,2,35.000000
2568-11-19 11:59:31.954,,,,,,,,,,,,,,,,,,,,,,,,,,,,,,,,,,,,,,,,,,/muse/elements/blink
2568-11-19 11:59:32.073,0.7417536199469231,0.6913481669336869,0.4071963256483039,0.7138189372886256,0.446034890481695,0.6240948370913554,0.5130859254381539,0.6179607096594758,0.9983912170873199,0.9862961211413381,0.8433102466385219,1.289463000441906,0.7259989076087217,0.2903113645826406,0.3317783577804937,1.228391519957094,0.2706070652068153,0.2114367479082211,0.2071035991486949,1.148597899523821,777.6556776556777,796.996336996337,788.1318681318681,756.3003663003664,414.2124542124542,-0.080688,0.094482,0.997620,-0.306549,-1.360779,-0.657959,366666.666667,85439780.219780,24921245.421245,112.592743,1,1,1,1,1,35.000000
2568-11-19 11:59:33.086,0.6484118296274881,0.2690897888245009,0.360770651737601,0.5898202833508335,0.3263000416613269,0.0836370276025407,0.3816834900873954,0.6375270140502437,0.6241851163443816,0.378346685718459,0.5926036296869578,1.126016671042659,0.6864708689165442,0.4294967399980315,0.4348848675720615,1.21366886411334,0.1621074851986392,0.2827007906535324,0.2837516101777557,1.050147448201122,878.7912087912089,803.4432234432235,778.0586080586081,906.996336996337,971.0622710622711,-0.065674,0.088501,1.001038,-0.568237,-2.026215,-0.396271,366666.666667,85464761.904762,24931721.611722,112.592743,1,1,1,1,1,35.000000
2568-11-19 11:59:33.258,,,,,,,,,,,,,,,,,,,,,,,,,,,,,,,,,,,,,,,,,,/muse/elements/blink
2568-11-19 11:59:34.078,0.6153029596935364,0.479442105400707,0.7557560553065351,0.5189750451191822,0.466174846985596,0.2086922253900663,0.6792610315967076,0.7367056184859306,0.7946797367745873,0.4682367813732149,0.326655749402053,1.179605414862613,0.7458197238903779,0.5049886089066957,0.4921706172879008,1.202343201353702,0.1315855405079915,0.3395819170574202,0.3285964428566561,1.103901485300049,760.7326007326008,808.2783882783883,795.3846153846154,803.8461538461539,814.3223443223443,-0.066833,0.089172,0.994934,-0.171967,-1.637421,-0.157013,365860.805861,85322124.542125,24899487.179487,112.592743,1,1,1,1,1,35.000000
2568-11-19 11:59:34.581,,,,,,,,,,,,,,,,,,,,,,,,,,,,,,,,,,,,,,,,,,/muse/elements/blink
2568-11-19 11:59:35.075,0.8087784306322381,0.7207219434947083,0.7355633439209827,0.4073185970886691,0.7031042668377557,0.5928492976856226,0.6593042078223694,0.6011622137411727,0.8233778383867477,0.6342975067460302,0.5330380123280927,1.222770589521688,0.5426764105519323,0.4904678835396973,0.4047490639810168,1.143303033849094,0.2942314989220814,0.281279145333042,0.2477097177990203,1.142409799698896,861.0622710622711,805.8608058608058,774.4322344322345,840.1098901098901,767.5824175824176,-0.062500,0.085632,1.009521,-0.456085,-1.869202,-0.014954,364249.084249,85335824.175824,24916410.256410,112.592743,1,1,1,1,1,35.000000
2568-11-19 11:59:35.775,,,,,,,,,,,,,,,,,,,,,,,,,,,,,,,,,,,,,,,,,,/muse/elements/blink
2568-11-19 11:59:36.106,0.9143251650655559,1.058348015160572,1.205890201341256,0.6538417956585393,0.7091050257594548,0.7748195224696307,0.811768788675159,1.008078422926912,0.7592103600098439,0.6171629497264478,0.8216596693226756,1.234982959177816,0.6201916320544413,0.4888137182307462,0.502504783356982,1.256983632136533,0.2958005911454456,0.1226665656912455,0.1068964007102983,1.1846892782575,693.8461538461538,781.6849816849817,839.7069597069598,661.6117216117216,763.5531135531136,-0.060791,0.079468,0.999207,-0.119629,-1.286011,1.502838,365860.805861,85292307.692308,24895457.875458,112.592743,1,1,1,1,1,35.000000
2568-11-19 11:59:36.329,,,,,,,,,,,,,,,,,,,,,,,,,,,,,,,,,,,,,,,,,,/muse/elements/blink
2568-11-19 11:59:37.006,,,,,,,,,,,,,,,,,,,,,,,,,,,,,,,,,,,,,,,,,,/muse/elements/blink
2568-11-19 11:59:37.122,0.7999395214969005,1.148687870992679,1.234903872806661,0.739148389068184,0.5420223872343095,0.6524412990304077,1.062500801160766,1.230712297665402,0.5461426099350581,0.5212071185726479,0.7805399412684098,1.104544527635725,0.6056719821528639,0.4378890290476813,0.4162332015309647,1.40730007076026,0.1717390805105707,0.14125183722673,0.2122117613257373,1.253605622752627,712.7838827838829,794.1758241758242,779.2673992673992,697.8754578754579,479.8901098901099,-0.066772,0.073669,1.003845,-0.074768,-3.753357,-0.074768,364249.084249,85377728.937729,24916410.256410,112.592743,1,1,1,1,1,35.000000
2568-11-19 11:59:38.104,0.9406221918321409,1.006373737398565,1.235742467678542,1.202384076856767,0.7309338906184821,0.487370209283844,1.236774950639411,0.8134745265761449,0.7461007754067699,0.5778969593536853,0.6094911352471102,1.213711507892993,0.7358301606823935,0.5863651513014055,0.466718723373637,1.329877953480872,0.2847517037345683,0.09981232765182857,0.2844518439019399,1.106619999777683,866.7032967032967,800.2197802197802,801.025641025641,889.6703296703297,933.992673992674,-0.063782,0.087219,1.000488,0.022430,-2.564545,0.179443,365054.945055,85104542.124542,24893846.153846,112.592743,1,1,1,1,1,35.000000
2568-11-19 11:59:38.225,,,,,,,,,,,,,,,,,,,,,,,,,,,,,,,,,,,,,,,,,,/muse/elements/blink
2568-11-19 11:59:39.086,0.7817043681554912,0.6642642975444389,0.7532810092423192,0.9519918948588565,0.7116529041712287,0.3864761593739807,0.1392274227546722,0.8632864051585432,0.8460882015617384,0.7068037784348996,0.5169968689510323,1.231266147392839,0.5472462566897559,0.5249998922517736,0.4563242808787411,1.142286756086672,0.3771463566548318,0.0574672135814,-0.1295906113377976,1.054106585420006,734.9450549450549,811.5018315018315,783.2967032967033,686.5934065934066,308.2417582417582,-0.067993,0.063721,0.999573,-0.657959,-1.981354,-3.753357,366666.666667,85205274.725275,24920439.560440,112.592743,1,1,1,1,1,35.000000
2568-11-19 11:59:39.388,,,,,,,,,,,,,,,,,,,,,,,,,,,,,,,,,,,,,,,,,,/muse/elements/blink
2568-11-19 11:59:40.120,0.3859417192036483,0.952082967615832,0.9114560484851246,0.3627509454981444,0.6293957357475882,0.8465922067654492,0.4489457690682756,0.987421592495761,0.877011424497346,0.5175078279461101,0.5567730814360703,1.189743978671349,0.3724345930371457,0.5505234176759342,0.4462865305348692,1.248006535808501,0.4156248399115635,0.06269482021190512,-0.2186026721237944,1.227620312221957,707.5457875457876,798.6080586080586,792.967032967033,653.5531135531136,265.5311355311355,-0.058411,0.094177,0.985901,3.439331,-3.805695,7.005768,368278.388278,85001391.941392,24886593.406593,112.592743,1,1,1,1,1,35.000000
2568-11-19 11:59:40.654,,,,,,,,,,,,,,,,,,,,,,,,,,,,,,,,,,,,,,,,,,/muse/elements/blink
2568-11-19 11:59:41.075,0.2901954313609255,0.8770109935980938,1.101876510686927,0.4080297388619792,0.5453349771709346,0.7855103255194048,0.661486489732579,1.038453510756004,0.81112735941819,0.5307116590364059,0.3292359861886096,1.159334799362302,0.2942810706984638,0.3449566876140898,0.4626154448256621,1.324592591570157,0.08834992885736657,0.1836753661206765,-0.06503830025608014,1.182504945995336,828.8278388278388,795.7875457875458,826.8131868131868,864.6886446886447,1159.6336996337,-0.065125,0.120056,0.984985,-1.338348,-0.725250,0.643005,369084.249084,85069084.249084,24884175.824176,112.592743,1,1,1,1,1,35.000000
2568-11-19 11:59:41.796,,,,,,,,,,,,,,,,,,,,,,,,,,,,,,,,,,,,,,,,,,/muse/elements/blink
2568-11-19 11:59:42.103,0.2901954313609255,0.3874897607455461,0.5900476212072939,1.132227106445697,0.5453349771709346,0.4318074592346843,0.5375898627256935,0.6913651813226057,0.81112735941819,0.7095188502258667,1.020687155638035,0.8733580355817623,0.2942810706984638,0.538416734083155,0.9409288005977363,1.586950550763934,0.08834992885736657,0.422429312798644,0.8615706895864153,1.455030776428101,847.7655677655678,818.3516483516484,802.6373626373627,835.2747252747253,529.047619047619,-0.081787,0.116516,0.996277,-0.822449,-3.409424,-1.001892,367472.527473,84888571.428571,24864835.164835,112.592743,1,1,1,1,1,35.000000
2568-11-19 11:59:43.022,,,,,,,,,,,,,,,,,,,,,,,,,,,,,,,,,,,,,,,,,,/muse/elements/blink
2568-11-19 11:59:43.089,0.2901954313609255,0.4126628653988151,0.5561171387650456,1.132227106445697,0.5453349771709346,0.5798169171403816,0.4409324771524696,0.6913651813226057,0.81112735941819,0.7067663030338159,1.020687155638035,0.8733580355817623,0.2942810706984638,0.5442044568503815,1.002031273925929,1.586950550763934,0.08834992885736657,0.1872371472619934,0.8951337355463894,1.455030776428101,944.4688644688645,817.1428571428571,806.6666666666667,976.3003663003664,1191.465201465202,-0.050720,0.106262,0.997864,-2.183228,-3.491669,0.067291,369084.249084,84945787.545788,24900293.040293,112.592743,1,1,1,1,1,35.000000
2568-11-19 11:59:44.099,0.2901954313609255,0.4939543201162739,0.9575224590147273,1.132227106445697,0.5453349771709346,0.544834124708116,0.7378057564007866,0.6913651813226057,0.81112735941819,0.5813357442738898,0.9396609435502762,0.8733580355817623,0.2942810706984638,0.4371614821828443,0.7849762902723357,1.586950550763934,0.08834992885736657,0.03920066407801395,0.4923122693144694,1.455030776428101,766.3736263736264,796.5934065934066,798.2051282051282,801.8315018315019,791.7582417582418,-0.045288,0.106384,0.998413,-0.628052,-2.280426,0.403748,365860.805861,84873260.073260,24882564.102564,112.592743,1,2,1,1,2,35.000000
2568-11-19 11:59:44.331,,,,,,,,,,,,,,,,,,,,,,,,,,,,,,,,,,,,,,,,,,/muse/elements/blink
2568-11-19 11:59:45.080,0.7681636942910977,0.9765660618745488,0.9689150911737106,0.8654974487395745,0.4267882954805969,0.6025109597235969,0.6188371696473085,0.9005504247627041,0.7257117219862955,0.2857373968024051,0.7481956037750259,1.137959538849592,0.5431012060470677,0.3071346696635407,0.6722551855790465,1.477459821154695,0.22581713986902,-0.1215242865345085,0.3483169949966318,1.161547012977857,542.7472527472528,793.3699633699634,752.6739926739926,477.4725274725275,46.73992673992674,-0.054260,0.096558,0.998047,-1.704712,-2.190704,-0.912170,366666.666667,85067472.527473,24888205.128205,112.592743,1,1,1,1,1,35.000000
2568-11-19 11:59:45.364,,,,,,,,,,,,,,,,,,,,,,,,,,,,,,,,,,,,,,,,,,/muse/elements/blink
2568-11-19 11:59:45.536,,,,,,,,,,,,,,,,,,,,,,,,,,,,,,,,,,,,,,,,,,/muse/elements/blink
2568-11-19 11:59:46.088,0.5534008276032997,0.9765660618745488,0.7553108185141142,0.8069533134404415,0.3903067377917376,0.6025109597235969,0.4877025659317604,0.8383259694151384,0.6822873419085193,0.2857373968024051,0.547612968880726,1.075182666306529,0.6313661200623149,0.3071346696635407,0.6917360793053298,1.54219909032897,0.2785677129819513,-0.1215242865345085,0.3874751369017989,1.191255568306954,807.4725274725275,775.6410256410256,772.8205128205128,833.6630036630037,1000.07326007326,-0.044006,0.088135,1.003357,0.515900,-1.315918,-1.024323,365054.945055,84882930.402930,24844688.644689,112.592743,1,1,1,1,1,35.000000
2568-11-19 11:59:46.644,,,,,,,,,,,,,,,,,,,,,,,,,,,,,,,,,,,,,,,,,,/muse/elements/blink
2568-11-19 11:59:47.089,0.9956048969031996,0.8412936776103802,0.7633698931102486,0.7583470276854565,0.4360106228492002,0.4181498448356535,0.4688494179074312,0.800285043143357,0.6622182596210759,0.5202972277342937,0.593585207639336,1.155367995525291,0.7510078858932798,0.4729349134467221,0.4874428736510134,1.452115937086311,0.3149390502443606,0.05672233992911587,0.2610437697449379,0.955449582234435,699.0842490842491,816.3369963369963,827.2161172161173,692.6373626373627,695.0549450549451,-0.057922,0.079895,1.001404,0.747681,-0.897217,-0.515900,365054.945055,84939340.659341,24855970.695971,112.592743,1,1,1,1,1,35.000000
2568-11-19 11:59:47.965,,,,,,,,,,,,,,,,,,,,,,,,,,,,,,,,,,,,,,,,,,/muse/elements/blink
2568-11-19 11:59:48.120,0.8763335374430993,0.8085920389920386,0.9545885219743558,0.9557667303446027,0.544832121507705,0.3651541612992007,0.569227519276985,0.8207411594707891,0.9615355378585184,0.7234365155141882,0.7052255375661378,1.490575639501992,0.7554811113610268,0.4300336821138205,0.522830939067208,1.400778669185213,0.4695229182480506,-0.08233457762407556,0.3278131073460461,1.198690435966713,740.5860805860806,798.6080586080586,841.7216117216118,723.2600732600732,183.3333333333333,-0.056152,0.080261,0.999451,-0.284119,-2.332764,0.291595,365054.945055,84764468.864469,24824542.124542,112.592743,1,1,1,1,1,35.000000
2568-11-19 11:59:49.116,1.100797383356268,0.7256565609226617,1.149609300538185,1.02653708772555,0.7720224556772105,0.4933999406439032,0.8491215872889254,0.8032499661399096,1.081192634727105,0.790542533276088,0.6268173919213177,1.524389548484977,0.779889718850042,0.4177041097263698,0.5324618278488332,1.321309759258661,0.4484434290441419,-0.0763476157370394,0.3342673849799944,1.195491128237184,868.3150183150184,789.3406593406594,786.9230769230769,892.893772893773,917.8754578754579,-0.044800,0.076416,0.996643,-0.411224,-2.235565,-0.994415,364249.084249,84826520.146520,24851941.391941,112.592743,1,1,1,1,1,35.000000
2568-11-19 11:59:49.118,,,,,,,,,,,,,,,,,,,,,,,,,,,,,,,,,,,,,,,,,,/muse/elements/blink
2568-11-19 11:59:50.073,1.30874491018149,0.8895538461902867,1.149609300538185,1.118690635245852,0.9638155112479938,0.5902641846687927,0.8491215872889254,0.7143964771277702,1.076958938000637,0.5296929573012301,0.6268173919213177,1.278790992450108,0.733037134482278,0.4785336236126376,0.5324618278488332,1.194986354063734,0.3443290540762098,-0.05752253909245296,0.3342673849799944,1.166785317491047,756.3003663003664,815.934065934066,805.8608058608058,743.4065934065934,412.1978021978022,-0.060669,0.079102,0.997925,-0.358887,-0.859833,-1.487885,364249.084249,84628278.388278,24837435.897436,112.592743,1,1,1,1,1,35.000000
2568-11-19 11:59:50.125,,,,,,,,,,,,,,,,,,,,,,,,,,,,,,,,,,,,,,,,,,/muse/elements/blink
2568-11-19 11:59:50.426,,,,,,,,,,,,,,,,,,,,,,,,,,,,,,,,,,,,,,,,,,/muse/elements/blink
2568-11-19 11:59:51.112,1.359494085542187,1.059383366226142,0.979889529823971,1.269774924632983,1.147690630674122,0.8097989046929419,0.4685276775690254,0.7912439245444177,1.013882692821457,0.8322951530357003,0.4971104602600795,1.03231545841822,0.8199088443255411,0.4401337782042083,0.5407006866274549,0.9977731868340795,0.2395011701985165,0.1215042486873761,0.1951147876341337,1.21188952072295,829.6336996336996,807.4725274725275,788.5347985347986,807.8754578754579,639.4505494505495,-0.051208,0.074585,0.994690,0.127106,-1.443024,-0.284119,364249.084249,84711282.051282,24844688.644689,112.592743,1,1,1,1,1,35.000000
2568-11-19 11:59:51.643,,,,,,,,,,,,,,,,,,,,,,,,,,,,,,,,,,,,,,,,,,/muse/elements/blink
2568-11-19 11:59:52.085,0.6889434123739462,0.9282943419708246,0.7203551623552178,0.6741832399413191,0.421602894994711,0.2933254236191518,0.3775931013382884,0.7589219239857516,0.5918564293678206,0.4198741306909489,0.4020526933537412,1.06291313406113,0.5154027088846965,0.3562611592061165,0.1725881433472148,1.350352687768658,0.3773064931557156,0.04595879037494006,0.03227055456719697,0.9763147209068085,703.919413919414,807.0695970695971,795.7875457875458,675.3113553113553,416.6300366300367,-0.064697,0.082947,0.998474,0.904694,-1.614990,-0.471039,366666.666667,84599267.399267,24846300.366300,112.592743,1,1,1,1,1,35.000000
2568-11-19 11:59:52.839,,,,,,,,,,,,,,,,,,,,,,,,,,,,,,,,,,,,,,,,,,/muse/elements/blink
2568-11-19 11:59:53.084,0.5526627013601535,0.4665667433651311,0.4807096112748726,0.486197273326423,0.7118385168045638,0.4188593698866179,0.3775174008008023,0.6996480631792892,0.8267492207446391,0.4144178249946204,0.6672449387205595,1.156607149103129,0.5759751092288803,0.4503579229576652,0.3950496642818199,1.323566207660414,0.3027615031298024,-0.0004985393981087809,0.2237609881337776,1.042629371143735,799.0109890109891,815.1282051282052,791.7582417582418,739.3772893772893,610.0366300366301,-0.061707,0.090027,1.001648,-0.119629,-2.370148,-0.575714,366666.666667,84729816.849817,24884981.684982,112.592743,1,1,1,1,1,35.000000
2568-11-19 11:59:54.086,,,,,,,,,,,,,,,,,,,,,,,,,,,,,,,,,,,,,,,,,,/muse/elements/blink
2568-11-19 11:59:54.088,0.322580886827403,0.3072211345290058,0.4228368841292383,0.2025230389360691,0.8258255264363321,0.5445184772706562,0.3925533313515285,0.6637756842707428,0.7111047642716478,0.3688094674723256,0.7281173189560651,1.072537749686356,0.6301398503707335,0.3239487163500005,0.4768196628213743,1.280853698893361,0.1817878696447397,0.03016461928985053,0.2415866674854381,1.005796176783521,732.1245421245421,793.3699633699634,787.3260073260074,744.6153846153846,693.8461538461538,-0.053040,0.084534,0.998779,-0.306549,-1.659851,-0.538330,366666.666667,84457435.897436,24840659.340659,112.592743,1,1,1,1,1,35.000000
2568-11-19 11:59:54.555,,,,,,,,,,,,,,,,,,,,,,,,,,,,,,,,,,,,,,,,,,/muse/elements/blink
2568-11-19 11:59:55.076,0.322580886827403,0.2129848887116557,0.4140990072710033,0.2025230389360691,0.8258255264363321,0.2095028097637552,0.334138513326223,0.6637756842707428,0.7111047642716478,0.5438994471489405,0.7122122301129356,1.072537749686356,0.6301398503707335,0.2497682509073396,0.4012825325772956,1.280853698893361,0.1817878696447397,0.0745036637873407,0.1098871049919854,1.005796176783521,806.2637362637363,799.8168498168499,799.8168498168499,827.2161172161173,962.1978021978023,-0.054626,0.080139,0.996521,-0.441132,-1.143951,-0.231781,366666.666667,84467106.227106,24848717.948718,112.592743,1,1,1,1,1,35.000000
2568-11-19 11:59:55.273,,,,,,,,,,,,,,,,,,,,,,,,,,,,,,,,,,,,,,,,,,/muse/elements/blink
2568-11-19 11:59:56.103,0.7781702579166244,0.774837204042752,0.9280455114621765,0.2025230389360691,0.6315159378949203,0.4727836248080775,0.5503530641479021,0.6637756842707428,0.5233779599515807,0.66488191137595,0.98187283821258,1.072537749686356,0.5067617560685653,0.326757811573168,0.4783114599403258,1.280853698893361,0.2810914113229365,0.1234377226427651,0.2156665568335614,1.005796176783521,835.2747252747253,800.6227106227107,789.3406593406594,840.9157509157509,935.2014652014652,-0.055542,0.077393,1.001526,-0.269165,-1.480408,-0.665436,365860.805861,84498534.798535,24844688.644689,112.592743,1,2,1,1,2,35.000000
2568-11-19 11:59:56.603,,,,,,,,,,,,,,,,,,,,,,,,,,,,,,,,,,,,,,,,,,/muse/elements/blink
2568-11-19 11:59:57.090,0.7851307549488958,0.8995111267091832,0.6306717883440824,0.5518155457621615,0.7848333291255479,0.6201013755539235,0.09757735325610099,0.4066804754824963,0.6368497235664563,0.6133018479932052,0.6894112775741246,1.00849666732911,0.5609669601688463,0.505130251219718,0.5871202554973964,1.390465648220334,0.3113794231100881,-0.08097723838622346,0.3419861822990018,1.155906086712772,589.4871794871796,812.7106227106227,808.6813186813187,577.8021978021978,410.989010989011,-0.057495,0.085327,0.993958,-0.343933,-2.332764,-0.844879,362637.362637,84472747.252747,24849523.809524,112.592743,1,1,1,1,1,35.000000
2568-11-19 11:59:57.830,,,,,,,,,,,,,,,,,,,,,,,,,,,,,,,,,,,,,,,,,,/muse/elements/blink
2568-11-19 11:59:58.086,0.8571245381759862,0.6851397730074651,0.5198062646383066,0.6042825841926348,0.8505449277820496,0.6192678473854842,0.3565484661887001,0.4454099748662251,0.360311807422766,0.5842801371106094,0.480628093337874,0.9285756714456551,0.6669366961512855,0.4932430891816227,0.5513169503877198,1.470024710687545,0.4581205017754891,-0.02912172189865423,0.1927583945782183,1.250877079730424,747.032967032967,782.0879120879121,790.5494505494506,726.8864468864469,463.3699633699634,-0.046448,0.079712,1.003662,0.112152,-2.362671,1.084137,362637.362637,84608937.728938,24856776.556777,112.592743,1,1,1,1,1,35.000000
2568-11-19 11:59:58.865,,,,,,,,,,,,,,,,,,,,,,,,,,,,,,,,,,,,,,,,,,/muse/elements/blink
2568-11-19 11:59:59.085,0.8545239875128183,0.5699212636908932,0.3197916175847428,0.6373462403240013,0.8304680154785864,0.585076564153498,0.4131720869439028,0.4168442606971703,0.3424216443797092,0.6609936615271542,0.5123331496935415,0.8179705243508621,0.6693839740828733,0.3950041327585184,0.5768732504733227,1.451930858596786,0.4824613433348569,0.01674568257822055,0.1215744246005253,1.25033608244911,896.1172161172161,819.96336996337,792.1611721611722,889.6703296703297,1021.025641025641,-0.052612,0.078430,1.000366,-0.934601,3.043060,-2.205658,363443.223443,84452600.732601,24816483.516484,112.592743,1,1,1,1,1,35.000000
2568-11-19 12:00:00.104,0.8545239875128183,0.7659325224954213,0.4107189173152509,0.6373462403240013,0.8304680154785864,0.4587256720733269,0.2973763569940667,0.4168442606971703,0.3424216443797092,0.5668825519452859,0.3727933726213892,0.8179705243508621,0.6693839740828733,0.3213224342441013,0.6324692684281603,1.451930858596786,0.4824613433348569,0.07432571605498461,0.2371586750123703,1.25033608244911,809.4871794871796,806.2637362637363,799.0109890109891,832.0512820512821,815.934065934066,-0.062622,0.072937,0.994934,0.119629,-2.871094,1.099091,362637.362637,84572673.992674,24823736.263736,112.592743,1,2,1,1,2,35.000000
2568-11-19 12:00:00.254,,,,,,,,,,,,,,,,,,,,,,,,,,,,,,,,,,,,,,,,,,/muse/elements/blink
2568-11-19 12:00:01.088,1.412023594849516,0.7659325224954213,0.4107189173152509,0.6373462403240013,0.9246061191779029,0.4587256720733269,0.2973763569940667,0.4168442606971703,0.9615709240976222,0.5668825519452859,0.3727933726213892,0.8179705243508621,0.8926577542429532,0.3213224342441013,0.6324692684281603,1.451930858596786,0.2951921243202866,0.07432571605498461,0.2371586750123703,1.25033608244911,773.2234432234433,806.6666666666667,772.014652014652,747.032967032967,637.032967032967,-0.053528,0.081726,1.000000,0.448608,-2.773895,0.508423,363443.223443,84295457.875458,24787472.527473,112.592743,1,1,1,1,1,35.000000
2568-11-19 12:00:01.388,,,,,,,,,,,,,,,,,,,,,,,,,,,,,,,,,,,,,,,,,,/muse/elements/blink
2568-11-19 12:00:01.596,,,,,,,,,,,,,,,,,,,,,,,,,,,,,,,,,,,,,,,,,,/muse/elements/blink
2568-11-19 12:00:02.114,1.476838610473768,0.7659325224954213,0.4107189173152509,0.6373462403240013,0.9774043503399964,0.4587256720733269,0.2973763569940667,0.4168442606971703,0.9564474549293457,0.5668825519452859,0.3727933726213892,0.8179705243508621,0.9241754382863386,0.3213224342441013,0.6324692684281603,1.451930858596786,0.285177694444422,0.07432571605498461,0.2371586750123703,1.25033608244911,877.1794871794872,797.8021978021978,790.1465201465202,927.1428571428572,1131.428571428572,-0.056396,0.070740,0.999329,-0.687866,-1.951447,-0.224304,365054.945055,84380073.260073,24799560.439560,112.592743,1,1,1,1,1,35.000000
2568-11-19 12:00:02.577,,,,,,,,,,,,,,,,,,,,,,,,,,,,,,,,,,,,,,,,,,/muse/elements/blink
2568-11-19 12:00:03.083,0.9763032805590875,0.6822540955858546,0.6153854309433542,0.458877417720007,0.8239388761140602,0.6551173545486213,0.07511128547876164,0.614911139649398,0.3279833540904853,0.5834750704853492,0.3118154712947167,0.9769476578111393,0.6348006250406806,0.3643088989381447,0.3558445450498329,0.94815755347287,0.1275826275314915,-0.4260574862075944,-0.121645645608885,1.057622427729761,716.8131868131868,804.2490842490843,793.7728937728938,724.8717948717949,438.7912087912088,-0.051147,0.069763,0.995178,-0.029907,-1.727142,0.224304,364249.084249,84220512.820513,24776190.476190,112.592743,1,1,1,1,1,35.000000
2568-11-19 12:00:03.883,,,,,,,,,,,,,,,,,,,,,,,,,,,,,,,,,,,,,,,,,,/muse/elements/blink
2568-11-19 12:00:04.087,1.064614140467481,0.2431672463879568,0.2459947685962684,0.4539534893336464,0.7027043370619294,0.369518163217106,0.2002092820946665,0.6193463285276064,0.9355736672148175,0.6123712342744755,0.3892484897259457,1.00414701684782,0.7002759449460055,0.2926220574245038,0.3564450847455028,1.069933027503463,0.2222167301999413,-0.1881402858544494,-0.162695099741338,1.095581427481634,875.1648351648352,801.4285714285714,789.7435897435897,893.6996336996338,1461.025641025641,-0.043884,0.069885,1.000916,-0.665436,-1.697235,-0.785065,364249.084249,84307545.787546,24819706.959707,112.592743,1,1,1,1,1,35.000000
2568-11-19 12:00:05.091,1.213699148909118,0.4302754274639137,0.3843352199688911,0.48031061582306,0.6791798539707679,0.4634358291005479,0.1960783456759067,0.5827331783979119,0.946079346288636,0.6580923325138568,0.5066070667964572,1.024763519431336,0.668068828694187,0.3273532935175594,0.395053669614626,1.162120176487584,0.2224974036159305,0.02335029836338058,0.05391315590294639,1.024055334989227,779.6703296703297,804.2490842490843,802.6373626373627,838.0952380952381,1153.589743589744,-0.039062,0.062500,1.000244,-0.254211,-1.420593,-0.082245,362637.362637,84305128.205128,24800366.300366,112.592743,1,1,1,1,1,35.000000
2568-11-19 12:00:05.141,,,,,,,,,,,,,,,,,,,,,,,,,,,,,,,,,,,,,,,,,,/muse/elements/blink
2568-11-19 12:00:06.091,0.6824571667024993,0.6766404470675923,0.2493940653627572,0.3856753128874345,0.2668982118593436,0.1674354762821521,0.07629015755451443,0.3123276455343274,0.622928591272785,0.4675059446427212,0.1890907262360223,1.054253197975297,0.6157318284728426,0.2663278471692994,0.423870920584403,1.163343444738538,0.253310418985247,-0.06201481381557451,0.1408202131125446,1.014862766185048,853.4065934065934,808.6813186813187,794.5787545787546,840.5128205128206,568.5347985347986,-0.045288,0.068176,1.001038,-0.224304,-1.211243,-0.239258,361831.501832,84318021.978022,24805201.465201,112.592743,1,1,1,1,1,35.000000
2568-11-19 12:00:06.335,,,,,,,,,,,,,,,,,,,,,,,,,,,,,,,,,,,,,,,,,,/muse/elements/blink
2568-11-19 12:00:07.079,0.145066203450126,0.5444584736417943,-0.05069935729084183,0.3354477919500354,0.4072625417104992,-0.02773901159496317,-0.1171071796232244,0.5694877216159064,0.5594821632031366,0.3470155585405622,0.310586562505295,1.187768168427647,0.5373636230141603,0.2172344095324356,0.3900246149950889,1.143754478820403,0.2441413414817607,-0.1177186390640919,0.144660906575329,1.034563722035839,856.2271062271062,804.2490842490843,776.0439560439561,892.4908424908425,1256.739926739927,-0.030884,0.059326,0.995544,-0.456085,-2.130890,0.471039,362637.362637,84406666.666667,24797142.857143,112.592743,1,1,1,1,1,35.000000
2568-11-19 12:00:07.554,,,,,,,,,,,,,,,,,,,,,,,,,,,,,,,,,,,,,,,,,,/muse/elements/blink
2568-11-19 12:00:08.090,0.5504423827617391,0.5702277496252106,-0.0632659323384845,0.5985647564440572,0.4277261443234069,-0.0796391175299988,-0.06612033655565105,0.6348445913220482,0.6225317471300843,0.05180600256095251,0.3449872163823242,1.18952927598468,0.5136153163521092,0.143631796432684,0.329079176045934,1.235021997923469,0.262203404421976,-0.1548222335443817,0.145004808020934,1.144988004870033,726.8864468864469,787.7289377289378,806.2637362637363,756.3003663003664,900.1465201465202,-0.032654,0.061035,0.996155,-0.426178,-1.876678,0.089722,361831.501832,84255970.695971,24761684.981685,112.592743,1,1,1,1,1,35.000000
2568-11-19 12:00:08.890,,,,,,,,,,,,,,,,,,,,,,,,,,,,,,,,,,,,,,,,,,/muse/elements/blink
2568-11-19 12:00:09.092,0.7576598155777913,0.7324817760398981,0.1673849477996417,0.6561957411896865,0.4048155777752418,0.1727645546340904,0.05012458747327103,0.1177319109034324,0.6150663714014587,0.2785862892229574,0.06260267456399848,0.8049069125234133,0.5955146076154171,0.1732704100240475,0.3138421798878493,1.129831929427274,0.2230351629090449,-0.03888807952219989,-0.09942654185177822,1.147282603710865,894.5054945054945,800.6227106227107,786.9230769230769,897.7289377289378,917.0695970695971,-0.027344,0.071228,1.005432,0.276642,-2.871094,0.433655,361831.501832,84294652.014652,24766520.146520,112.592743,1,1,1,1,1,35.000000
2568-11-19 12:00:09.993,,,,,,,,,,,,,,,,,,,,,,,,,,,,,,,,,,,,,,,,,,/muse/elements/blink
2568-11-19 12:00:10.096,0.3802016700337188,0.3870860192113668,0.7451848290810785,0.4990591580586523,0.3895794972763396,0.1680958992948116,-0.01504568754573519,0.0272831855319291,0.8102093987869734,0.0002723111457614976,-0.01591015311312015,0.4370688166078052,0.5978232589661776,0.2500150094266914,0.36264853997584,1.097618189247299,0.1229253426050462,-0.01783253076331481,0.06281987543848891,0.9711800674688578,776.4468864468864,794.1758241758242,794.981684981685,815.5311355311355,1039.96336996337,-0.027039,0.064087,1.001770,-0.149536,-2.385101,0.418701,361025.641026,84224542.124542,24737509.157509,112.592743,1,1,1,1,1,35.000000
2568-11-19 12:00:11.105,0.5632669453160958,0.278075142497948,0.4115590835863933,0.5298159491802107,0.3532353555154393,-0.1119354969882506,-0.04490332373579889,0.3564748506317348,0.8237525589752075,0.2919474066779901,0.0945262601331161,1.087541503171829,0.5240925075989884,0.3185416751806074,0.3890854762616534,1.346794552058485,0.1577991620683661,0.09140361563677685,0.1927821767059233,1.297317396139882,582.6373626373627,801.8315018315019,807.8754578754579,564.1025641025641,225.6410256410256,-0.036072,0.065308,1.005371,0.201874,-2.325287,0.463562,361025.641026,84276923.076923,24749597.069597,112.592743,1,1,1,1,1,35.000000
2568-11-19 12:00:11.306,,,,,,,,,,,,,,,,,,,,,,,,,,,,,,,,,,,,,,,,,,/muse/elements/blink
2568-11-19 12:00:12.093,0.6891579918187675,0.3146439839193446,0.04904451675254048,0.2664983886731959,0.2922027779608926,-0.2011137531384481,0.1103887920061731,0.1863354218321015,0.5829699856673954,0.2290382296520111,0.6409480140022746,0.9680160605887925,0.4660696551596251,0.278316633295175,0.3940925317937962,1.252793203674606,0.2574294620079605,0.03303619508288239,0.3090882828995747,1.236295300562129,819.5604395604396,805.0549450549451,789.3406593406594,778.8644688644689,569.7435897435897,-0.032410,0.076355,0.999207,0.074768,-2.437439,-0.396271,361831.501832,84147985.347985,24714139.194139,112.592743,1,1,1,1,1,35.000000
2568-11-19 12:00:12.554,,,,,,,,,,,,,,,,,,,,,,,,,,,,,,,,,,,,,,,,,,/muse/elements/blink
2568-11-19 12:00:13.091,0.3722364185141609,0.2815953175590835,0.3477461466704416,0.2838515883436625,0.4694824726521573,-0.1227930682592191,0.2885424043964072,0.2032766270803766,1.018134497766115,-0.288229978445064,0.6304888223878541,1.039812447823875,0.4377865602706148,0.1416836438637296,0.3104887909046625,1.24787812057149,0.04219175337807269,-0.01283994447916711,0.1200478939760726,1.113263356905134,691.4285714285714,798.6080586080586,792.967032967033,688.2051282051282,525.018315018315,-0.035767,0.071594,0.998108,0.291595,-1.480408,-0.800018,364249.084249,84278534.798535,24763296.703297,112.592743,1,1,1,1,1,35.000000
2568-11-19 12:00:13.555,,,,,,,,,,,,,,,,,,,,,,,,,,,,,,,,,,,,,,,,,,/muse/elements/blink
2568-11-19 12:00:13.807,,,,,,,,,,,,,,,,,,,,,,,,,,,,,,,,,,,,,,,,,,/muse/elements/blink
2568-11-19 12:00:14.074,0.3744743082213119,-0.1100957175582215,0.174563430094852,0.182207089751854,0.3454605221109498,0.2002957135627435,0.2766040760522323,0.2597446743806157,0.9638818627161442,0.6519807681624469,0.4686634404709554,0.978419339377396,0.3781243390159644,0.2168701333109381,0.2250268159691418,1.140855463276256,-0.002917306437866249,0.08531976582807708,-0.09000789012058615,1.08617294348844,730.5128205128206,796.1904761904763,786.9230769230769,683.7728937728938,201.8681318681319,-0.037537,0.076416,1.006592,-0.508423,-2.908478,-0.785065,364249.084249,84023882.783883,24702857.142857,112.592743,1,1,1,1,1,35.000000
2568-11-19 12:00:14.336,,,,,,,,,,,,,,,,,,,,,,,,,,,,,,,,,,,,,,,,,,/muse/elements/blink
2568-11-19 12:00:14.852,,,,,,,,,,,,,,,,,,,,,,,,,,,,,,,,,,,,,,,,,,/muse/elements/blink
2568-11-19 12:00:15.090,0.3744743082213119,0.7397003711678433,0.5169065271978869,0.2095024632503329,0.3454605221109498,0.5480398189876559,0.4906327635646064,0.2824289337413438,0.9638818627161442,0.5913704958487428,0.6675743402562183,0.9705414652380877,0.3781243390159644,0.1748148938989099,0.3523465181653859,1.069266796168382,-0.002917306437866249,-0.02167015737850964,-0.01810891763130288,1.136692315971006,754.2857142857143,789.3406593406594,782.893772893773,778.4615384615385,672.893772893773,-0.050110,0.072144,0.998108,-0.411224,-1.629944,0.448608,363443.223443,84179413.919414,24756043.956044,112.592743,1,1,1,1,1,35.000000
2568-11-19 12:00:16.080,0.1542469696259255,0.8100025366184995,0.2770301966753766,-0.1665318856132613,0.4412559108306277,0.2928050232006699,0.3783313221719269,-0.3276485651683758,0.5448601817154408,0.3316995981972469,0.6830715019475653,1.204967283537237,0.6140765646148674,0.2107757966222769,0.3200797576525631,1.213004884685172,-0.06694799635713215,-0.197600932298674,0.1881278232369816,1.084760426518768,695.8608058608058,801.4285714285714,778.4615384615385,667.6556776556777,732.9304029304029,-0.034912,0.079590,0.998779,-0.127106,-2.332764,-0.358887,365054.945055,83894945.054945,24731062.271062,112.592743,1,1,1,1,1,35.000000
2568-11-19 12:00:16.183,,,,,,,,,,,,,,,,,,,,,,,,,,,,,,,,,,,,,,,,,,/muse/elements/blink
2568-11-19 12:00:17.114,0.6679833644443592,0.7551873228841216,0.6449205269374224,0.4987947642917016,0.6574112312335234,0.6394182539635223,0.2898944989820296,0.5534592609023008,0.9373286317670967,0.3582718624982276,0.5293672282552009,1.270187167003844,0.5971658061431021,0.2590723693186188,0.3062847906569596,1.084278136690142,0.107816722602522,-0.2361843451950962,0.1572445068996715,1.097809250833085,830.0366300366301,796.5934065934066,786.5201465201466,803.4432234432235,875.9706959706959,-0.039917,0.066284,0.998230,-0.740204,-1.562653,0.276642,362637.362637,84015824.175824,24751208.791209,112.592743,1,1,1,1,1,35.000000
2568-11-19 12:00:17.389,,,,,,,,,,,,,,,,,,,,,,,,,,,,,,,,,,,,,,,,,,/muse/elements/blink
2568-11-19 12:00:18.115,0.6750628427131029,0.6528465012203906,0.7052537124445211,0.6060688966187722,0.6530826464624283,0.6598234140910679,0.2557966044208103,0.5796249449146792,0.9705138553126925,0.4546702753797619,0.4702815314750013,1.161654318049985,0.4910767823242506,0.1680670201803784,0.3973429729153254,1.192376772465595,0.3188443775160385,-0.04989796459167165,0.003928958352140393,1.114728781239302,884.0293040293041,810.2930402930403,781.2820512820513,888.8644688644689,947.6923076923077,-0.035828,0.071716,0.999634,0.396271,-1.921539,-0.291595,364249.084249,83802271.062271,24717362.637363,112.592743,1,1,1,1,1,35.000000
2568-11-19 12:00:18.536,,,,,,,,,,,,,,,,,,,,,,,,,,,,,,,,,,,,,,,,,,/muse/elements/blink
2568-11-19 12:00:19.088,0.3830835688626766,0.2564958245868242,0.4966219278252152,0.1537010999125095,0.3849488622875347,0.05379361235778619,0.2950292431666979,0.371054262715178,0.8317014990116307,0.4694549847537898,0.6145225859146484,0.9893589504692638,0.4851680892988938,0.183079146905288,0.3179152326278364,1.189744930574978,0.3269842032567146,0.008607996787881241,0.05042533940595685,1.043148517696034,765.9706959706959,800.2197802197802,803.040293040293,728.4981684981685,801.4285714285714,-0.038269,0.064392,1.001892,0.052338,-0.680389,-0.433655,362637.362637,83903003.663004,24747179.487179,112.592743,1,1,1,1,1,35.000000
2568-11-19 12:00:19.858,,,,,,,,,,,,,,,,,,,,,,,,,,,,,,,,,,,,,,,,,,/muse/elements/blink
2568-11-19 12:00:20.090,0.5292218529177781,0.6189307028263509,0.5297547565956005,0.5222366942886182,0.4960842460376973,0.3854708860151448,0.3535131855196672,0.5481612140292142,0.8153132351003,0.4982777899827904,0.7594960665875157,0.8549760332026808,0.4451792517166598,0.2891886102576319,0.1790098474451357,1.307899488663139,0.4240751753652656,0.1433802374687936,0.1048871767792734,1.021907908073076,890.8791208791209,797.8021978021978,794.981684981685,876.3736263736264,917.0695970695971,-0.031555,0.069580,0.996826,0.224304,-1.704712,0.463562,362637.362637,83765201.465201,24699633.699634,112.592743,1,1,1,1,1,35.000000
2568-11-19 12:00:20.981,,,,,,,,,,,,,,,,,,,,,,,,,,,,,,,,,,,,,,,,,,/muse/elements/blink
2568-11-19 12:00:21.094,0.5049447917931703,0.7418199247211761,0.3410331117273424,0.7383341345773771,0.5682093035354706,0.393883421784524,0.3456947264770025,0.5666750786512192,0.692025279926811,0.2782073336167094,0.6074443175186351,0.6746615954953449,0.4370622867189774,0.2199906888351028,0.2520988194499096,1.301151898342046,0.4816549144406814,0.02614980083251624,0.1109794954830517,0.9909510142487513,702.3076923076924,800.2197802197802,798.6080586080586,682.5641025641025,42.71062271062272,-0.024780,0.071594,1.001221,-0.127106,-1.757050,0.164490,362637.362637,83731355.311355,24711721.611722,112.592743,1,1,1,1,1,35.000000
2568-11-19 12:00:22.083,0.5049447917931703,0.4687477751728815,-0.1063218251304242,0.7383341345773771,0.5682093035354706,-0.1817778329196218,-0.01077597073904151,0.5666750786512192,0.692025279926811,0.1516619190825503,0.3361613969406275,0.6746615954953449,0.4370622867189774,0.3285547424312311,0.2543139409388859,1.301151898342046,0.4816549144406814,-0.03396370754858975,0.04804264577309918,0.9909510142487513,826.8131868131868,792.1611721611722,792.967032967033,823.992673992674,971.4652014652015,-0.030701,0.070374,0.997498,0.216827,-1.644897,-0.291595,363443.223443,83543589.743590,24693992.673993,112.592743,1,1,1,1,1,35.000000
2568-11-19 12:00:22.292,,,,,,,,,,,,,,,,,,,,,,,,,,,,,,,,,,,,,,,,,,/muse/elements/blink
2568-11-19 12:00:23.070,0.1985696486484145,0.5135509371912728,-0.3937564257719734,0.3431635113694489,0.5217132681393269,0.3249919103870022,0.06324106803060117,0.1993596112425632,0.9317870760508025,0.6158208835692388,0.3326503249318961,0.648985155023558,0.4197550621717238,0.3961971733453762,0.08808869892863123,1.357205428177097,0.2424844981901482,-0.03283479656278512,-0.04768365629431264,1.075141030602691,861.4652014652015,792.1611721611722,788.9377289377289,867.1062271062272,1055.677655677656,-0.037842,0.077698,1.000183,-0.209351,-1.181335,-0.672913,365054.945055,83624981.684982,24700439.560440,112.592743,1,1,1,1,1,35.000000
2568-11-19 12:00:23.511,,,,,,,,,,,,,,,,,,,,,,,,,,,,,,,,,,,,,,,,,,/muse/elements/blink
2568-11-19 12:00:24.110,0.537473545016482,0.523823833902645,0.07220575262471179,0.2601790938520294,0.7906592589576416,0.4633302899473156,-0.2112382007395143,0.2959368781817978,0.9354053974958104,0.6061678822140965,0.3120778528644987,0.9748597827915709,0.5472317241426475,0.2893546261032806,0.2728318083142473,1.322284550148163,0.2530329224472115,0.009657271872816165,0.06039675739382738,1.093746450958593,711.5750915750916,794.1758241758242,790.5494505494506,712.3809523809524,608.8278388278388,-0.026245,0.076538,1.002625,-0.441132,-0.314026,-0.119629,364249.084249,83490402.930403,24703663.003663,112.592743,1,1,1,1,1,35.000000
2568-11-19 12:00:24.714,,,,,,,,,,,,,,,,,,,,,,,,,,,,,,,,,,,,,,,,,,/muse/elements/blink
2568-11-19 12:00:25.065,,,,,,,,,,,,,,,,,,,,,,,,,,,,,,,,,,,,,,,,,,/muse/elements/blink
2568-11-19 12:00:25.118,0.435741963996378,0.6424125025340786,0.3349102951966678,0.3052341257408669,0.7705014249217963,0.1942409796490505,-0.1314743570104626,0.5008645540355209,0.7602189519241347,0.5166797676683553,0.4235323119714173,1.047272030077609,0.683907230713201,0.3298958711925976,0.285250281915189,1.234277033014209,0.2019274101830593,0.03749562206243864,-0.0005358487418315834,0.9671478776496684,773.2234432234433,795.3846153846154,794.5787545787546,739.7802197802198,308.6446886446886,-0.038635,0.076538,1.005554,-0.127106,-0.979462,0.007477,365860.805861,83454945.054945,24689157.509158,112.592743,1,1,1,1,1,35.000000
2568-11-19 12:00:25.928,,,,,,,,,,,,,,,,,,,,,,,,,,,,,,,,,,,,,,,,,,/muse/elements/blink
2568-11-19 12:00:26.089,0.4792833109699676,0.7956223294737838,0.7583967521591569,0.255038738521384,0.3361642984221445,-0.01353563373985703,0.3020980729062167,0.2398037629276941,0.3338099808568933,0.5631526836873992,0.5249242302656356,0.7748108071737679,0.638692525506605,0.3305471504688028,0.4139690096493308,1.029025897314549,0.1676529970817826,-0.08461712084396582,0.0561527402576832,0.8619012210098406,794.1758241758242,794.5787545787546,805.0549450549451,803.8461538461539,850.5860805860806,-0.028320,0.077393,1.000366,-0.560760,-1.278534,-0.538330,365860.805861,83332454.212454,24683516.483516,112.592743,1,1,1,1,1,35.000000
2568-11-19 12:00:27.051,,,,,,,,,,,,,,,,,,,,,,,,,,,,,,,,,,,,,,,,,,/muse/elements/blink
2568-11-19 12:00:27.103,0.4792833109699676,0.5552526394777709,0.48736479734783,0.4779946448193579,0.3361642984221445,-0.08023140430529013,-0.05266344139634785,0.2227234551090345,0.3338099808568933,0.3251141514799727,0.4426274256944908,0.9427671466831211,0.638692525506605,0.2851406727170376,0.4025888961017286,1.288662385570395,0.1676529970817826,0.05722925587186772,-0.04214015486268566,1.183077299033876,754.2857142857143,809.8901098901099,799.0109890109891,714.3956043956044,117.2527472527473,-0.035706,0.073547,1.000916,0.426178,-0.717773,-0.904694,365860.805861,83361465.201465,24700439.560440,112.592743,1,1,1,1,1,35.000000
2568-11-19 12:00:28.071,0.4792833109699676,0.2023749142027646,0.3921089279706849,0.5023013205105055,0.3361642984221445,0.0930147457687667,0.09842247166766258,0.1776305470499475,0.3338099808568933,0.2872192872337322,0.1055084315516811,0.9368066396336228,0.638692525506605,0.2345601360270015,0.3640122274288541,1.318952669016706,0.1676529970817826,0.1010197091855543,0.02275645487091678,1.198557991465115,805.0549450549451,792.967032967033,794.5787545787546,771.2087912087912,1227.326007326007,-0.036377,0.068420,0.994080,-1.009369,-1.226196,-0.493469,365860.805861,83395311.355311,24694798.534799,112.592743,1,1,1,1,1,35.000000
2568-11-19 12:00:28.389,,,,,,,,,,,,,,,,,,,,,,,,,,,,,,,,,,,,,,,,,,/muse/elements/blink
2568-11-19 12:00:29.075,0.3597555878615966,0.3285859421065723,0.5180563906908594,0.2565789669126876,0.4694386029167388,-0.08254815030184527,0.2067662154434618,0.981597130247451,0.6061785205854016,0.1839513750587334,0.08852425633525385,1.341597800934787,0.4638351698362996,0.1986783759609272,0.3269077877826703,1.153372999684946,0.1726987415658968,-0.07362031472266539,0.2226504313572404,0.8990842349419766,750.2564102564103,800.6227106227107,817.5457875457876,757.1062271062272,610.0366300366301,-0.039490,0.075745,1.002502,0.643005,-1.936493,0.971985,363443.223443,83434798.534799,24713333.333333,112.592743,1,1,1,1,1,35.000000
2568-11-19 12:00:29.633,,,,,,,,,,,,,,,,,,,,,,,,,,,,,,,,,,,,,,,,,,/muse/elements/blink
2568-11-19 12:00:30.101,0.3210793725009625,0.64976183823209,0.5670640174081826,0.6432129774027585,0.286868817134047,0.2165980371544003,0.07753777758673437,0.7102462675647722,0.4562952223561538,0.4664394144921605,0.173030178444172,1.457522581498223,0.4465332053738124,0.1386201898665469,0.3224703158030333,1.198303008412969,0.1787107391061485,-0.09614047754606808,0.0717950654682511,1.098092476821354,707.1428571428571,794.1758241758242,796.5934065934066,702.7106227106227,403.3333333333334,-0.052917,0.075806,0.998596,0.052338,0.029907,-1.816864,363443.223443,83153553.113553,24678681.318681,112.592743,1,1,1,1,1,35.000000
2568-11-19 12:00:30.332,,,,,,,,,,,,,,,,,,,,,,,,,,,,,,,,,,,,,,,,,,/muse/elements/blink
2568-11-19 12:00:31.073,0.7819318828631346,0.9531765062216161,0.826185661517459,1.008575882900056,1.003085071686264,0.4994776796605332,0.4762392648836651,0.9042903401609316,1.022129932706509,0.5995256471785982,0.6172558958004937,1.430164010942224,0.7629108247002256,0.2023201289092874,0.2137846006422682,1.396772818630099,0.533159713089527,-0.01335391817894613,0.03268118560459297,1.280665476452278,687.3992673992674,782.893772893773,787.3260073260074,757.9120879120879,440.8058608058608,-0.037170,0.076111,0.994629,-0.971985,0.620575,1.151428,363443.223443,83284908.424908,24718168.498168,112.592743,1,1,1,1,1,35.000000
2568-11-19 12:00:31.653,,,,,,,,,,,,,,,,,,,,,,,,,,,,,,,,,,,,,,,,,,/muse/elements/blink
2568-11-19 12:00:32.079,0.7819318828631346,0.7660695913712525,0.7111778690865374,0.9990998211814763,1.003085071686264,0.4965677599612242,0.4071720803512512,1.044743231645874,1.022129932706509,0.587359118594001,0.6884375589119558,1.356832049695574,0.7629108247002256,0.215851239068616,0.3560625589999024,1.441395260077911,0.533159713089527,0.01525009935045665,0.09503585358818964,1.194327387696978,868.7179487179487,789.3406593406594,782.893772893773,876.7765567765568,844.5421245421246,-0.047058,0.069824,0.991272,2.048645,0.545807,-0.157013,364249.084249,83130989.010989,24677069.597070,112.592743,1,1,1,1,1,35.000000
2568-11-19 12:00:32.806,,,,,,,,,,,,,,,,,,,,,,,,,,,,,,,,,,,,,,,,,,/muse/elements/blink
2568-11-19 12:00:33.118,0.7820190422046648,0.4725476215134059,0.1006696875742765,0.9990998211814763,0.483763055069839,0.3223271386886089,0.0379363186149129,1.044743231645874,0.3548590429222602,0.2916042855277963,0.4868040917292465,1.356832049695574,0.4907503959087701,0.2854314098522175,0.3550405231376981,1.441395260077911,0.280038963476152,-0.06534518356928525,0.0283639172257128,1.194327387696978,773.6263736263736,799.8168498168499,803.040293040293,819.5604395604396,857.4358974358975,-0.066711,0.090454,0.995117,-1.099091,-2.183228,0.478516,363443.223443,83143882.783883,24693992.673993,112.592743,1,1,1,1,1,35.000000
2568-11-19 12:00:34.077,,,,,,,,,,,,,,,,,,,,,,,,,,,,,,,,,,,,,,,,,,/muse/elements/blink
2568-11-19 12:00:34.078,0.7895701260560762,0.4121361583025557,0.6089724180418254,-0.01404511964458981,0.4306542013729021,0.2535171673762536,0.3339551144610698,0.4567773862840679,0.4376090306426495,0.211675922963768,0.1031924152194697,1.345764509379652,0.4701419729749218,0.1726723073872775,0.3358497225310003,1.272355832035819,0.2972167158028347,-0.04656719708264397,0.1251540057473702,1.187175381156214,830.8424908424909,792.5641025641025,778.8644688644689,836.8864468864469,624.5421245421246,0.001282,0.074829,0.994141,-1.510315,-1.143951,-4.486084,365054.945055,83047985.347985,24693186.813187,112.592743,1,1,1,1,1,35.000000
2568-11-19 12:00:34.979,,,,,,,,,,,,,,,,,,,,,,,,,,,,,,,,,,,,,,,,,,/muse/elements/blink
2568-11-19 12:00:35.081,0.8068173439668536,0.4132162706483628,0.7506742602687871,-0.01404511964458981,0.3323299149110326,0.2102211302988552,0.3855082104142319,0.4567773862840679,0.3655883911396769,0.2654525957157602,0.2730819387507008,1.345764509379652,0.4613539100548041,0.1974111200601838,0.4307740922839253,1.272355832035819,0.2971992577356714,0.157413644939095,0.1465445989213832,1.187175381156214,732.9304029304029,778.4615384615385,809.8901098901099,949.3040293040293,944.4688644688645,0.043457,0.069214,0.992004,2.736511,11.611481,2.721558,368278.388278,82108351.648352,24499780.219780,112.592743,1,1,1,1,1,35.000000
2568-11-19 12:00:35.331,,,,,,,,,,,,,,,,,,,,,,,,,,,,,,,,,,,,,,,,,,/muse/elements/blink
2568-11-19 12:00:35.838,,,,,,,,,,,,,,,,,,,,,,,,,,,,,,,,,,,,,,,,,,/muse/elements/blink
2568-11-19 12:00:36.101,0.8068173439668536,0.9240251565677928,0.502872952872836,-0.01404511964458981,0.3323299149110326,0.4782196900912531,0.03940011860747211,0.4567773862840679,0.3655883911396769,0.7718706052388929,0.2627397152895359,1.345764509379652,0.4613539100548041,0.3551856315093766,0.3378236012381616,1.272355832035819,0.2971992577356714,0.172095204789109,0.09891317872239139,1.187175381156214,734.5421245421246,798.2051282051282,809.0842490842491,632.1978021978022,657.5824175824176,0.006775,0.097534,0.984375,4.553375,4.874878,1.330872,366666.666667,82412967.032967,24611794.871795,112.592743,1,2,1,1,2,35.000000
2568-11-19 12:00:36.305,,,,,,,,,,,,,,,,,,,,,,,,,,,,,,,,,,,,,,,,,,/muse/elements/blink
2568-11-19 12:00:36.611,,,,,,,,,,,,,,,,,,,,,,,,,,,,,,,,,,,,,,,,,,/muse/elements/blink
2568-11-19 12:00:37.081,0.8068173439668536,0.9733256825556714,0.8936340758198973,-0.01404511964458981,0.3323299149110326,0.4572406388510053,0.241354702423141,0.4567773862840679,0.3655883911396769,0.6887268093261798,0.3467392758565541,1.345764509379652,0.4613539100548041,0.3859417859515789,0.3980383214563171,1.272355832035819,0.2971992577356714,0.1562070456906317,0.2235008458314734,1.187175381156214,674.5054945054945,759.92673992674,808.2783882783883,801.4285714285714,940.0366300366301,-0.035583,0.231323,0.949402,7.947845,-0.157013,4.314117,367472.527473,83002857.142857,24712527.472527,112.592743,1,2,1,1,2,35.000000
2568-11-19 12:00:37.325,,,,,,,,,,,,,,,,,,,,,,,,,,,,,,,,,,,,,,,,,,/muse/elements/blink
2568-11-19 12:00:37.772,,,,,,,,,,,,,,,,,,,,,,,,,,,,,,,,,,,,,,,,,,/muse/elements/blink
2568-11-19 12:00:38.070,0.8068173439668536,1.204108162584521,0.897899169178798,-0.01404511964458981,0.3323299149110326,0.6260610719081883,0.2726222987770459,0.4567773862840679,0.3655883911396769,0.1980052515553613,0.04307662065567388,1.345764509379652,0.4613539100548041,0.3907943676653021,0.3492980354192511,1.272355832035819,0.2971992577356714,0.07691282944197948,0.2077126102558636,1.187175381156214,876.3736263736264,794.981684981685,794.1758241758242,879.5970695970697,1037.545787545788,-0.099548,0.192932,0.993042,-1.076660,-0.171967,0.306549,364249.084249,83006080.586081,24663369.963370,112.592743,1,2,1,1,2,35.000000
2568-11-19 12:00:38.470,,,,,,,,,,,,,,,,,,,,,,,,,,,,,,,,,,,,,,,,,,/muse/elements/jaw_clench
2568-11-19 12:00:38.868,,,,,,,,,,,,,,,,,,,,,,,,,,,,,,,,,,,,,,,,,,/muse/elements/blink
2568-11-19 12:00:39.072,0.8068173439668536,0.4641502418789158,0.897899169178798,-0.01404511964458981,0.3323299149110326,-0.1113756795601146,0.2726222987770459,0.4567773862840679,0.3655883911396769,0.4112736583472938,0.04307662065567388,1.345764509379652,0.4613539100548041,0.371027447901888,0.3492980354192511,1.272355832035819,0.2971992577356714,0.233515343184377,0.2077126102558636,1.187175381156214,707.948717948718,774.0293040293041,820.3663003663004,665.2380952380953,869.5238095238095,-0.057495,0.159973,0.990356,-2.056122,-1.816864,0.411224,365054.945055,83078608.058608,24656923.076923,112.592743,1,2,1,1,2,35.000000
2568-11-19 12:00:39.974,,,,,,,,,,,,,,,,,,,,,,,,,,,,,,,,,,,,,,,,,,/muse/elements/blink
2568-11-19 12:00:40.080,0.5232155905900258,0.7810962830860678,0.897899169178798,-0.01404511964458981,0.8144328746687387,0.7281821211646989,0.2726222987770459,0.4567773862840679,0.1467817286781223,0.6933501413256939,0.04307662065567388,1.345764509379652,0.2696419240144652,0.2513335289160029,0.3492980354192511,1.272355832035819,0.2195123194404253,0.1538524194045144,0.2077126102558636,1.187175381156214,827.6190476190476,792.1611721611722,774.0293040293041,875.9706959706959,913.040293040293,-0.080200,0.144409,0.991150,-0.800018,-2.220612,-0.328979,364249.084249,82908571.428571,24632747.252747,112.592743,1,1,1,1,1,35.000000
2568-11-19 12:00:40.177,,,,,,,,,,,,,,,,,,,,,,,,,,,,,,,,,,,,,,,,,,/muse/elements/blink
2568-11-19 12:00:41.087,0.5232155905900258,0.8733343772751325,0.7820178504740067,-0.01404511964458981,0.8144328746687387,0.7732309230083053,0.2397930082605161,0.4567773862840679,0.1467817286781223,0.7153202640879556,0.7633754247743353,1.345764509379652,0.2696419240144652,0.4030760792909857,0.3688950574877662,1.272355832035819,0.2195123194404253,0.1409505122936241,0.3847955652328448,1.187175381156214,689.8168498168499,784.9084249084249,792.967032967033,653.1501831501831,443.6263736263737,-0.075745,0.133057,0.991699,-0.613098,-0.979462,0.164490,361025.641026,82827985.347985,24625494.505495,112.592743,1,1,1,1,1,35.000000
2568-11-19 12:00:41.332,,,,,,,,,,,,,,,,,,,,,,,,,,,,,,,,,,,,,,,,,,/muse/elements/blink
2568-11-19 12:00:42.090,0.7496126569133993,0.7865831596303424,0.5229082529871608,0.4254976642297403,0.612271856752129,0.3308255926489098,0.2180260162383096,0.4595026772920878,0.6465164085365688,0.4971986040660085,0.5911021587626489,1.003968827399273,0.5744033025717985,0.3470232700657926,0.4284411092436123,1.277609716311279,0.2437332906663806,0.1980705848726457,0.368660632157025,1.271251720149912,904.5787545787546,798.2051282051282,797.8021978021978,945.6776556776557,1073.003663003663,-0.065857,0.122864,0.987976,0.119629,-3.469238,1.084137,364249.084249,83014945.054945,24672234.432234,112.592743,1,1,1,1,1,35.000000
2568-11-19 12:00:42.635,,,,,,,,,,,,,,,,,,,,,,,,,,,,,,,,,,,,,,,,,,/muse/elements/blink
2568-11-19 12:00:43.112,0.7358876255846837,0.424543901220665,0.4169752885346227,0.5060527449004297,0.2310733971676918,0.03459327800747652,0.1043203544625192,0.3599015787982878,0.7253485012432187,0.5039214777308714,0.4696038830236072,1.101254546282224,0.5230425071342538,0.3249506998309823,0.5239721742276217,1.302384546238718,0.3114231999133397,0.07597723815298241,0.4237836800954544,1.286985056495545,876.7765567765568,791.7582417582418,788.1318681318681,895.3113553113553,725.6776556776557,-0.053040,0.113831,0.998108,-0.605621,-2.071075,-0.448608,363443.223443,82895677.655678,24652087.912088,112.592743,1,1,1,1,1,35.000000
2568-11-19 12:00:43.771,,,,,,,,,,,,,,,,,,,,,,,,,,,,,,,,,,,,,,,,,,/muse/elements/blink
2568-11-19 12:00:44.097,0.9319417247173549,0.9598697231674391,0.8800563928991668,0.4693980960854777,0.497932957688699,0.7293042530940513,0.6078976196831034,0.3281157519197457,0.6721040064932854,0.8002625470350447,0.5300992201530539,1.075398028998067,0.4339461098243592,0.4285441264943751,0.4595743931334988,1.357575337931176,0.3764005503683336,0.08023124030781111,0.3547715620706562,1.262583778654844,825.2014652014652,794.981684981685,803.040293040293,865.0915750915751,1058.498168498169,-0.071228,0.115112,0.988342,-0.336456,-0.702820,-0.964508,365860.805861,83172087.912088,24706080.586081,112.592743,1,1,1,1,1,35.000000
2568-11-19 12:00:45.054,,,,,,,,,,,,,,,,,,,,,,,,,,,,,,,,,,,,,,,,,,/muse/elements/blink
2568-11-19 12:00:45.104,0.7995194507723624,1.078306507346229,0.915964447897412,0.5455195593613402,0.6125712101515511,0.8031371544175921,0.6794590881314612,0.1708142886713506,0.619885033771451,0.7539711821322287,0.4223523630203155,1.050252758329373,0.6453587178460298,0.2899571896684154,0.4488107511571378,1.394042465108806,0.2158616503773037,-0.1091515605647176,0.1339352076103728,1.319371925794327,816.7399267399268,796.996336996337,796.996336996337,811.0989010989011,560.0732600732601,-0.074097,0.119568,0.993591,0.074768,-2.160797,-0.822449,364249.084249,82991575.091575,24656117.216117,112.592743,1,1,1,1,1,35.000000
2568-11-19 12:00:45.601,,,,,,,,,,,,,,,,,,,,,,,,,,,,,,,,,,,,,,,,,,/muse/elements/blink
2568-11-19 12:00:46.097,0.4191860503349094,0.6175652962084304,0.3214134617920682,0.3283347860823885,0.5333041334377802,0.2140944069074701,0.2213660488497112,0.08065641149085287,0.6499830144291088,0.3432381006614081,0.3997143008801155,0.9061526914781377,0.6707460441529717,0.1818030470452774,0.4248838704438941,1.346516460062273,0.2076420867528873,-0.0123887599175735,0.05206183643132305,1.220985812225052,878.7912087912089,800.2197802197802,802.2344322344322,991.6117216117217,1054.468864468864,-0.086121,0.121399,0.995789,0.209351,-2.056122,-0.471039,366666.666667,83242197.802198,24675457.875458,112.592743,1,1,1,1,1,35.000000
2568-11-19 12:00:46.301,,,,,,,,,,,,,,,,,,,,,,,,,,,,,,,,,,,,,,,,,,/muse/elements/blink
2568-11-19 12:00:47.071,1.053760081551685,0.8399030737954111,0.7566022373597453,0.1888491938971325,0.7145427834728693,0.459375771104085,0.3992566105235318,0.008207181748329878,1.311435349074127,0.5464252253010828,0.5272581994584217,0.8060244134265021,1.001228842669502,0.2296202715191265,0.4131635712396574,1.310213978347303,0.2881135734137283,0.06933208817400698,-0.0214993898582675,1.191408921494489,752.6739926739926,812.7106227106227,782.4908424908425,666.8498168498169,581.025641025641,-0.079895,0.165039,0.985046,0.762634,-3.633728,-9.256287,369084.249084,83014139.194139,24642417.582418,112.592743,1,1,1,1,1,35.000000
2568-11-19 12:00:47.508,,,,,,,,,,,,,,,,,,,,,,,,,,,,,,,,,,,,,,,,,,/muse/elements/blink
2568-11-19 12:00:48.097,0.8353226490769406,0.7902580597476669,0.9495132658958439,0.5863409438532724,0.8443515125540045,0.4174455401058376,0.4429923845365016,0.8938062607672855,1.606239480705077,0.6004167433310175,0.5866245663688335,1.654170870337335,1.014768414825247,0.3296659526083158,0.4782273099958922,1.291597581144378,0.4606067231912435,0.00656565383964056,-0.009791140186039386,1.267513330842458,743.4065934065934,788.9377289377289,790.1465201465202,757.9120879120879,1016.190476190476,-0.092285,0.154541,0.991516,0.164490,-1.742096,0.665436,366666.666667,83227692.307692,24651282.051282,112.592743,1,1,1,1,1,35.000000
2568-11-19 12:00:48.466,,,,,,,,,,,,,,,,,,,,,,,,,,,,,,,,,,,,,,,,,,/muse/elements/blink
2568-11-19 12:00:49.100,0.4786714767754265,0.8001143334149901,0.9328215899625271,0.6730936710103491,0.672163109437948,0.1774863983997622,0.3696886474309412,0.6999419949886296,0.9408138635939868,0.3442228966574788,0.3499567644122912,1.187928497252061,0.5829238932552706,0.3296578403454349,0.2677267239753188,1.150678263502183,0.3266023080010208,-0.05416495945047251,0.205471520811914,1.064722477288995,678.9377289377289,788.1318681318681,794.981684981685,604.3956043956044,34.65201465201465,-0.082764,0.161377,0.982666,-0.590668,-1.211243,-0.104675,368278.388278,83154358.974359,24623882.783883,112.592743,1,1,1,1,1,35.000000
2568-11-19 12:00:49.867,,,,,,,,,,,,,,,,,,,,,,,,,,,,,,,,,,,,,,,,,,/muse/elements/blink
2568-11-19 12:00:50.086,1.078995339444582,0.6038911375719225,0.3202323433352933,1.034741653014882,0.7032289608697211,0.26046912924891,0.1739508795875971,0.6180635440050448,0.8801850597210957,0.2782284769719429,0.318101526123313,0.9819121699517095,0.7676873903167009,0.1585468729894139,0.3225929151943954,1.276965400389741,0.3765545195798486,0.04939445034648558,-0.00192832634146551,0.9613263328036891,847.7655677655678,793.3699633699634,801.025641025641,834.8717948717949,571.7582417582418,-0.086914,0.158630,0.999451,0.366364,-2.407532,1.652374,368278.388278,83277655.677656,24631135.531136,112.592743,1,1,1,1,1,30.000000
2568-11-19 12:00:51.075,1.260924786718108,0.2470977816513795,0.2312913625328894,0.8666426613006454,0.818236777755335,0.1831394588977941,0.1402415083638625,0.5119494000670693,1.014572148877892,0.4995830930286276,0.3744086759635124,1.014845055402626,0.7134216048450918,0.2711926969701673,0.3251377428188526,1.190964571105873,0.3387775676610855,-0.01706262859209165,-0.0401395411676121,0.9238333835759245,880.4029304029305,794.1758241758242,794.981684981685,965.8241758241759,1315.970695970696,-0.089111,0.151978,0.996216,-0.336456,-1.914062,-0.448608,369890.109890,83141465.201465,24580366.300366,112.592743,1,1,1,1,1,30.000000
2568-11-19 12:00:51.175,,,,,,,,,,,,,,,,,,,,,,,,,,,,,,,,,,,,,,,,,,/muse/elements/blink
2568-11-19 12:00:52.109,0.302568280717662,0.1918377329814594,-0.2376913438420737,0.08695773192827773,0.5113023492124549,0.06751651915151236,-0.1330368887853467,0.4262416774694909,0.8244196377045184,0.4501435498755538,0.3711331912790524,1.007946408381242,0.6031585278996684,0.3256330123121306,0.3182233393934717,1.040429437984676,0.3090457905969961,-0.1002440135021581,0.2280075555997025,0.8713013791147507,745.8241758241759,804.2490842490843,802.6373626373627,729.3040293040293,555.6410256410256,-0.082275,0.146484,0.990295,0.665436,-2.960815,0.568237,369084.249084,83338901.098901,24598095.238095,112.592743,1,1,1,1,1,30.000000
2568-11-19 12:00:52.376,,,,,,,,,,,,,,,,,,,,,,,,,,,,,,,,,,,,,,,,,,/muse/elements/blink
2568-11-19 12:00:53.128,0.6007164547292823,0.4299121723302771,-0.3243742604799931,0.5473700685356047,0.5443384094848632,0.08515511439944699,-0.2235075030423353,0.5733540698859326,0.8457915675706239,0.09933271806535901,0.0476503598951788,0.9726741344940439,0.5730704718499897,0.2164896260560941,0.2597036597214964,1.152555867296048,0.2815653934766333,0.0305567008877838,0.1384156542229287,0.9279462342595348,710.7692307692308,797.3992673992674,787.7289377289378,612.4542124542124,118.0586080586081,-0.081299,0.148071,0.990295,-0.276642,-1.809387,-0.463562,369084.249084,83113260.073260,24526373.626374,112.592743,1,1,1,1,1,30.000000
2568-11-19 12:00:53.610,,,,,,,,,,,,,,,,,,,,,,,,,,,,,,,,,,,,,,,,,,/muse/elements/blink
2568-11-19 12:00:54.088,0.7173345951112092,1.080621598453829,0.6219409317498209,0.7078819738607189,0.6637029666444735,0.2050489511237655,0.513752864021386,0.5045337667753862,0.8639337894973348,0.6861688780770824,0.3804916780496327,0.8886278172892559,0.5433892069003046,0.2136764581476916,0.2737853782487155,1.213266792730596,0.08844454005719896,0.03580453044075211,-0.05768584392504463,1.000069767266192,824.7985347985348,802.6373626373627,780.0732600732601,893.6996336996338,1154.798534798535,-0.080200,0.140930,0.991943,0.396271,-1.398163,0.254211,370695.970696,83251868.131868,24540073.260073,112.592743,1,1,1,1,1,30.000000
2568-11-19 12:00:54.808,,,,,,,,,,,,,,,,,,,,,,,,,,,,,,,,,,,,,,,,,,/muse/elements/blink
2568-11-19 12:00:55.106,0.7586016936833944,1.134359149398542,0.7043270597471101,0.5344360204607881,0.4346732975869493,0.4509054277684752,0.3284381525750081,0.394419221546544,0.5826440090484867,0.6290201095598187,0.2947252792251536,1.240661422734272,0.5272364485578929,0.2697588850657985,0.2794949981023728,1.296049415977584,0.1723015762675739,0.06838108381934474,0.08833028923498711,1.04638363664513,685.3846153846154,784.9084249084249,788.9377289377289,603.992673992674,166.4102564102564,-0.088562,0.143127,0.991089,-0.074768,-1.786957,-0.687866,371501.831502,82998021.978022,24523956.043956,112.592743,1,1,1,1,1,30.000000
2568-11-19 12:00:56.063,,,,,,,,,,,,,,,,,,,,,,,,,,,,,,,,,,,,,,,,,,/muse/elements/blink
2568-11-19 12:00:56.119,0.7462043525349922,1.176440232125001,0.5071618120435091,0.6535583864856928,0.8069926139040289,0.7276499733583166,0.4910613238004024,0.6677573751541125,0.8228334770834351,0.4377145513800708,0.5069192131631535,1.228914373427409,0.6857223819888366,0.3734724763329327,0.2272792502888236,1.22718247909349,0.2658591622290474,-0.01424558739324609,0.1820598179414798,1.020976935131306,885.6410256410256,820.7692307692308,776.8498168498169,992.014652014652,1210.40293040293,-0.076477,0.137207,0.980652,0.171967,-1.143951,-1.211243,373919.413919,83198681.318681,24563443.223443,112.592743,1,1,1,1,1,30.000000
2568-11-19 12:00:57.092,0.9926368867938858,1.345074989271409,0.9385943103511237,1.039854495788707,0.8089229244466307,0.7690060135730524,0.6875671254686343,0.842090198224635,0.8292277619096369,0.5243075787893238,0.4891919558214812,1.136083564656764,0.531152206328881,0.2501310512549097,0.3515272336775657,1.21703685195597,0.2824637724342504,-0.1141293492723589,0.09841541176330638,0.9859470535741478,749.8534798534798,769.5970695970697,821.5750915750916,702.7106227106227,679.7435897435897,-0.083557,0.132141,0.990784,-0.014954,-2.474823,-0.403748,375531.135531,83114065.934066,24540073.260073,112.592743,1,1,1,1,1,30.000000
2568-11-19 12:00:57.385,,,,,,,,,,,,,,,,,,,,,,,,,,,,,,,,,,,,,,,,,,/muse/elements/blink
2568-11-19 12:00:58.092,0.9874716206009106,1.092803042581288,1.063047784715327,0.7242864024915788,0.7703310133439621,0.6423820871044807,0.5550072359313363,0.6692764674862625,0.8448377271587786,0.2578076529459241,0.3236298913749103,1.123182130903673,0.5043738765479365,0.1698519980809881,0.2222468660555263,1.107207347441001,0.2670933921279228,-0.08664202275187856,-0.1281499031903298,0.9441833675769398,890.4761904761905,801.4285714285714,793.3699633699634,965.8241758241759,888.0586080586081,-0.078674,0.128845,0.990417,0.254211,-1.854248,0.171967,376336.996337,83103589.743590,24565860.805861,112.592743,1,1,1,1,1,30.000000
2568-11-19 12:00:58.448,,,,,,,,,,,,,,,,,,,,,,,,,,,,,,,,,,,,,,,,,,/muse/elements/blink
2568-11-19 12:00:59.113,0.5428293749901572,0.8791742265711429,0.8381369067203468,0.4716681494356944,0.332201087161396,0.5883175023680446,0.4225401657302215,0.6091999469117317,0.6388299430055042,0.2899808553741021,0.4419784082925889,0.9093579285078883,0.6662813486568333,0.2956554561094097,0.3015343508578065,1.148668948340577,0.2481820105280625,-0.1227983402660126,0.05438100162951809,0.9827783063590905,809.8901098901099,804.2490842490843,803.4432234432235,908.6080586080586,1145.934065934066,-0.081421,0.120483,0.990662,-0.441132,-1.465454,-0.082245,375531.135531,83010109.890110,24526373.626374,112.592743,1,1,1,1,1,30.000000
2568-11-19 12:00:59.803,,,,,,,,,,,,,,,,,,,,,,,,,,,,,,,,,,,,,,,,,,/muse/elements/blink
2568-11-19 12:01:00.099,0.6226086065424563,0.8855334191421724,0.7072212215619712,0.342492388006803,0.07926645565470979,0.4545695674679121,0.3737717842959157,0.4563846214816445,0.493352912230876,0.2092043437670804,0.3608957089389044,1.180857353843447,0.6698446850912141,0.252767853476634,0.2920509492111368,1.160547131409381,0.2634437125629094,-0.2381017325611351,0.1256857536365098,0.9561501660619475,823.5897435897436,796.5934065934066,793.3699633699634,807.4725274725275,545.5677655677656,-0.078125,0.116943,0.995789,-0.171967,-2.011261,-0.814972,373919.413919,83193846.153846,24581172.161172,112.592743,1,1,1,1,1,30.000000
2568-11-19 12:01:00.996,,,,,,,,,,,,,,,,,,,,,,,,,,,,,,,,,,,,,,,,,,/muse/elements/blink
2568-11-19 12:01:01.107,0.6037665746920577,0.3447429527313244,-0.2658898686927168,0.5999365718038742,0.4295091959333691,0.09198998775157159,-0.2196344716595419,0.3885710962764933,0.5454394345800913,0.2247274212258871,0.2692807859663601,1.210179177404949,0.6049891059398138,0.1626950425379657,0.3259506254216913,1.112163642957327,0.351203151348528,-0.1278061796036218,0.2486880591233996,0.9234852653661817,763.5531135531136,797.3992673992674,795.3846153846154,720.4395604395604,178.9010989010989,-0.077271,0.120422,0.993896,-0.089722,-0.545807,0.104675,375531.135531,82999633.699634,24533626.373626,112.592743,1,1,1,1,1,30.000000
2568-11-19 12:01:02.116,0.4983683989487475,0.5581567207171795,0.4464686390372816,0.4247487999833809,0.3667876463774084,0.2330181457061535,0.2096504167714595,0.4444429343970303,0.7916475309255804,0.642603030019542,0.2974466473659136,1.049295624822558,0.4699791990215586,0.1812772444463177,0.3558990440774117,1.158794427560233,0.3505607437468863,0.07058333708451114,0.1850787672356195,1.100896292219064,877.5824175824176,803.040293040293,782.893772893773,960.989010989011,1581.501831501831,-0.080261,0.115173,0.990295,0.351410,-1.233673,-0.919647,373919.413919,83161611.721612,24563443.223443,112.592743,1,1,1,1,1,30.000000
2568-11-19 12:01:02.299,,,,,,,,,,,,,,,,,,,,,,,,,,,,,,,,,,,,,,,,,,/muse/elements/blink
2568-11-19 12:01:03.083,0.7337171228707563,0.8998461114912335,0.9141920754398272,0.1923510310704633,0.6752827057241912,0.6131057774573219,0.5414699084998202,0.5536130875495885,0.8616988892752012,0.7401519693500632,0.5202676052636925,1.299753696706022,0.403447544342483,0.2056305063496126,0.3063490584485146,1.154428091953153,0.3129884229103235,0.06349022546709944,0.1496358938777515,1.160495287298134,723.6630036630037,780.4761904761905,815.1282051282052,634.6153846153846,129.3406593406594,-0.069946,0.117798,0.997742,-0.074768,-1.562653,0.456085,373113.553114,82914212.454212,24531208.791209,112.592743,1,1,1,1,1,30.000000
2568-11-19 12:01:03.538,,,,,,,,,,,,,,,,,,,,,,,,,,,,,,,,,,,,,,,,,,/muse/elements/blink
2568-11-19 12:01:04.118,0.6323438744912012,0.8153958122106901,0.8696138756933702,0.7128991594520673,0.742912623281477,0.4544313378216551,0.3381010774245768,0.6654214069963961,0.7697253213852226,0.590124150449632,0.5126702275984588,1.325420514972863,0.520676657283536,0.2420554163610182,0.367454061717703,1.062762723593103,0.194697204572325,0.06318963731128639,0.3084007818964465,1.063268088475045,835.6776556776557,792.1611721611722,797.8021978021978,859.8534798534798,490.7692307692308,-0.081543,0.119507,0.993347,-0.523376,-2.123413,-0.396271,373113.553114,82997216.117216,24540073.260073,112.592743,1,1,1,1,1,30.000000
2568-11-19 12:01:04.651,,,,,,,,,,,,,,,,,,,,,,,,,,,,,,,,,,,,,,,,,,/muse/elements/blink
2568-11-19 12:01:05.107,0.7321880005246501,0.7742599702553965,0.9005726248333011,0.8711735057076357,0.6477648735642784,0.4956685448995907,0.4386267887323274,0.7498968539421044,0.711373751376722,0.6267033801787486,0.4533885904127428,1.098121561883342,0.6128478157827288,0.2388398515803791,0.4058702484154516,1.013375962493138,0.2974709976035076,0.03543763814227692,0.291940853760155,0.9092385067716108,704.7252747252747,810.6959706959707,796.996336996337,647.5091575091575,572.5641025641025,-0.073425,0.114441,0.996948,-0.448608,-0.814972,-1.226196,370695.970696,82991575.091575,24546520.146520,112.592743,1,1,1,1,1,30.000000
2568-11-19 12:01:05.886,,,,,,,,,,,,,,,,,,,,,,,,,,,,,,,,,,,,,,,,,,/muse/elements/blink
2568-11-19 12:01:06.121,0.8777559927974132,0.7671097782641819,0.8614952170125214,0.6922013581379288,0.5240125226454948,0.4649093800875242,0.4848139764865048,0.5864120618979006,0.759510913501051,0.4365318089188415,0.4667071345358517,1.051083243348018,0.6173237703021652,0.2504675040392679,0.2876780222326079,0.8784918423843769,0.1074479410667959,0.03086474984091968,0.1031681577055215,0.9542187926901381,680.952380952381,796.1904761904763,798.2051282051282,600.3663003663004,270.3663003663004,-0.069214,0.127380,1.002258,0.067291,-2.190704,-1.256104,371501.831502,82973846.153846,24533626.373626,112.592743,1,1,1,1,1,30.000000
2568-11-19 12:01:06.355,,,,,,,,,,,,,,,,,,,,,,,,,,,,,,,,,,,,,,,,,,/muse/elements/blink
2568-11-19 12:01:07.023,,,,,,,,,,,,,,,,,,,,,,,,,,,,,,,,,,,,,,,,,,/muse/elements/blink
2568-11-19 12:01:07.084,0.8388116975197553,0.9662630925204724,0.9811662971079051,0.5591511516939303,0.5959149509304672,0.3919608643589029,0.6499653001879525,0.5755751194804323,0.7369023062877343,0.2147950588991138,0.5380064706794361,0.5110594811255225,0.6495670402174482,0.203667934012817,0.2493694065251902,0.9115484214904709,0.07334609312709754,-0.04027500401671841,-0.05335257251532115,1.009635504405004,784.9084249084249,799.0109890109891,806.6666666666667,799.0109890109891,830.4395604395604,-0.068542,0.107666,0.992920,0.358887,-2.175751,-0.067291,370695.970696,82966593.406593,24539267.399267,112.592743,1,1,1,1,1,30.000000
2568-11-19 12:01:07.193,,,,,,,,,,,,,,,,,,,,,,,,,,,,,,,,,,,,,,,,,,/muse/elements/blink
2568-11-19 12:01:08.087,0.8388116975197553,0.9015021459938892,0.4535282026638969,0.5591511516939303,0.5959149509304672,0.3334446065132862,0.1819124550811271,0.5755751194804323,0.7369023062877343,0.1964688675035531,0.5163429141266569,0.5110594811255225,0.6495670402174482,0.08867506789492624,0.3664672417852233,0.9115484214904709,0.07334609312709754,-0.0610942180239754,0.03526407784432826,1.009635504405004,701.0989010989011,789.7435897435897,784.5054945054945,589.0842490842491,516.959706959707,-0.072937,0.122375,0.997864,-0.246735,-2.115936,-0.269165,373113.553114,82985934.065934,24551355.311355,112.592743,1,1,1,1,1,30.000000
2568-11-19 12:01:08.526,,,,,,,,,,,,,,,,,,,,,,,,,,,,,,,,,,,,,,,,,,/muse/elements/blink
2568-11-19 12:01:09.094,0.1895985956009029,0.9169469940711737,0.8325684180823102,0.2003040246662449,0.454008786758502,0.3009769990930926,0.3343348718117657,0.375990128581265,0.3961575521407524,0.3260042997378254,0.2148124704269019,1.098609259489338,0.595072268208628,0.123065258384533,0.3663214490292084,1.011447081143258,0.2561609782718909,-0.001793179922683862,-0.009960662693050661,0.9591377687204705,867.9120879120879,792.967032967033,803.8461538461539,958.1684981684982,1464.249084249084,-0.057922,0.103699,0.990967,-0.500946,-1.981354,-0.657959,374725.274725,82919853.479853,24536849.816850,112.592743,1,1,1,1,1,30.000000
2568-11-19 12:01:09.715,,,,,,,,,,,,,,,,,,,,,,,,,,,,,,,,,,,,,,,,,,/muse/elements/blink
2568-11-19 12:01:10.081,0.4005455664545967,0.987233698636608,0.9698101895752334,0.6746309997564619,0.6774636180682809,0.4755771173905678,0.4285770428496803,0.712721111180508,0.5090371545854577,0.5909003356603516,0.1758524519796249,0.9316694420418705,0.6897747439804364,0.2360975772281012,0.3373467111403023,0.9576199490871439,0.398482401709947,0.08811190154012963,-0.02094166655021376,0.9049496537395623,731.7216117216118,785.3113553113553,811.0989010989011,683.7728937728938,377.5457875457876,-0.057129,0.119751,0.993408,0.149536,-1.413116,-0.119629,371501.831502,82914212.454212,24536043.956044,112.592743,1,1,1,1,1,30.000000
2568-11-19 12:01:10.952,,,,,,,,,,,,,,,,,,,,,,,,,,,,,,,,,,,,,,,,,,/muse/elements/blink
2568-11-19 12:01:11.119,0.5350756934262438,0.2501852992872611,0.5680713074493378,0.5570773621993881,0.8206768053436349,0.2916204714550426,-0.04369066416115343,0.6992032145161894,0.6655225316619868,0.5010251746671283,0.2551920219159488,0.9853634994101448,0.6552570401197682,0.3552548610436637,0.2869052864575847,0.998523775952918,0.4304830681453433,0.1096264676503147,0.2262711627750309,0.8866057337909229,718.021978021978,792.967032967033,795.3846153846154,633.0036630036631,194.6153846153846,-0.049500,0.111938,1.006470,-0.261688,-0.897217,-0.074768,372307.692308,82878754.578755,24515091.575092,112.592743,1,1,1,1,1,30.000000
2568-11-19 12:01:12.069,0.6344582317728056,0.7592426633463238,0.7157822669242268,0.7110731083029732,0.7109706197338391,0.349041085370021,-0.02369936414276745,0.6257769150826441,0.7947023194470889,0.4744338486792911,0.3818052261308534,0.9505888638257399,0.5964023075414789,0.2630860784032305,0.2587559175772386,1.210101452925472,0.2255831484667156,0.09568620731331806,0.2061977905583733,0.9543060687187449,850.5860805860806,792.1611721611722,788.5347985347986,860.6593406593407,781.2820512820513,-0.061218,0.108398,0.992065,0.388794,-1.749573,-0.239258,371501.831502,82731282.051282,24533626.373626,112.592743,1,1,1,1,1,30.000000
2568-11-19 12:01:12.276,,,,,,,,,,,,,,,,,,,,,,,,,,,,,,,,,,,,,,,,,,/muse/elements/blink
2568-11-19 12:01:13.101,0.7212599950101767,0.5113231235924124,0.3389043911202203,0.5240931918577946,0.3718442296855267,0.1296841401356899,-0.2589916984924896,0.3760001262636726,0.838489141894712,0.3963302734640147,0.2711979427916213,0.9447461933047666,0.4133046640353309,0.1622357113815602,0.2704888408673212,1.188474214150191,0.1013383375424024,-0.01436364581042958,0.06940372813052471,0.8327371821500059,852.1978021978023,793.7728937728938,805.4578754578755,927.1428571428572,1252.307692307692,-0.042053,0.113159,0.999695,0.927124,-3.013153,-0.560760,373113.553114,82894065.934066,24579560.439560,112.592743,1,1,1,1,1,30.000000
2568-11-19 12:01:13.475,,,,,,,,,,,,,,,,,,,,,,,,,,,,,,,,,,,,,,,,,,/muse/elements/blink
2568-11-19 12:01:14.100,0.4208433615648999,0.5628925747114604,-0.07039450722942628,0.4953045842016075,0.4970952279357373,0.2253123847546868,-0.2182081930182837,0.5558870712993246,0.6271781437305122,0.5715925859272589,0.2214481376152561,0.9033659824623117,0.3608342179560868,0.05882504939648922,0.1708935938706482,1.234652555121677,0.1274285146110071,-0.2150189598685558,0.02804329809542249,0.9003868818573713,756.3003663003664,811.9047619047619,772.014652014652,684.981684981685,267.1428571428572,-0.034790,0.114868,0.997437,-0.403748,-1.981354,-0.904694,372307.692308,82653113.553114,24512673.992674,112.592743,1,1,1,1,1,30.000000
2568-11-19 12:01:14.501,,,,,,,,,,,,,,,,,,,,,,,,,,,,,,,,,,,,,,,,,,/muse/elements/blink
2568-11-19 12:01:14.813,,,,,,,,,,,,,,,,,,,,,,,,,,,,,,,,,,,,,,,,,,/muse/elements/blink
2568-11-19 12:01:15.110,1.175683557349099,1.032766487277849,0.9654527970325364,0.8240126495857989,1.192396907988276,0.612204259747524,0.5211037074305943,0.4265314747275666,1.199300693528307,0.7382067357812909,0.6868010197536403,0.7347679603345983,0.5128066125833822,0.01100682553507205,0.1670532621942138,1.335644561278455,0.1298384965589074,-0.3422566949416864,0.002371966921597926,1.018308281794783,826.007326007326,801.4285714285714,792.5641025641025,956.5567765567766,967.032967032967,-0.048828,0.098389,0.997742,-0.695343,-1.151428,-0.104675,373919.413919,82788498.168498,24556996.336996,112.592743,1,1,1,1,1,30.000000
2568-11-19 12:01:16.076,,,,,,,,,,,,,,,,,,,,,,,,,,,,,,,,,,,,,,,,,,/muse/elements/blink
2568-11-19 12:01:16.077,1.175683557349099,0.2996411278300726,0.9741001393042611,0.4268555191245216,1.192396907988276,0.5376882061297275,0.545300234475193,0.4183247712754795,1.199300693528307,0.5550930877779908,0.6965698142258135,0.9622433642860306,0.5128066125833822,0.2176571219139879,0.2981741433302062,1.027094075700496,0.1298384965589074,-0.2171490782966743,0.151445877590347,0.8045530462583025,701.5018315018315,803.4432234432235,785.3113553113553,571.7582417582418,0,-0.056702,0.115723,0.995117,0.485992,-1.368256,0.441132,374725.274725,82583003.663004,24480439.560440,112.592743,1,1,1,1,1,30.000000
2568-11-19 12:01:17.112,0.8689448920805928,0.9275826894063846,0.8578728583956561,0.4344514877610484,0.7280926735541855,0.8631362728816023,0.5893768133025034,0.6258538919392487,0.8344011547225794,0.6129036922690619,0.5201109541261857,1.028564921144127,0.4574562817899716,0.1483473577413395,0.4755569999504052,1.020819413607561,0.2925798705928064,-0.02579884455956961,0.1738867537223127,0.6979365751311409,842.5274725274726,818.7545787545788,775.2380952380953,792.5641025641025,529.047619047619,-0.057068,0.109558,0.999023,-0.478516,-0.104675,0.807495,373113.553114,82755457.875458,24523956.043956,112.592743,1,1,1,1,1,30.000000
2568-11-19 12:01:17.263,,,,,,,,,,,,,,,,,,,,,,,,,,,,,,,,,,,,,,,,,,/muse/elements/blink
2568-11-19 12:01:18.112,0.7956096356539508,1.167931442358783,0.7074166429618463,0.678856271610138,0.6904467629085069,0.9331237248720843,0.6733840614898166,0.8522885291355645,0.7019260496061774,0.5655245936995541,0.6249509187446518,1.08600071918948,0.4988683607921541,0.06659892336720503,0.3649170990959191,0.9987338675513953,0.2444468014348854,-0.05483155561944432,0.03522099837922103,0.7352627787497703,865.0915750915751,783.2967032967033,800.2197802197802,976.7032967032967,1153.589743589744,-0.057007,0.110291,1.002136,0.171967,-1.405640,0.067291,375531.135531,82643443.223443,24477216.117216,112.592743,1,1,1,1,1,30.000000
2568-11-19 12:01:18.471,,,,,,,,,,,,,,,,,,,,,,,,,,,,,,,,,,,,,,,,,,/muse/elements/blink
2568-11-19 12:01:18.900,,,,,,,,,,,,,,,,,,,,,,,,,,,,,,,,,,,,,,,,,,/muse/elements/blink
2568-11-19 12:01:19.118,0.323602288214308,1.16304441742345,0.2823998881602269,0.574596541764673,0.4359859270675209,0.6800304707716677,0.3374518978785411,0.6925327520811932,0.4574015668794206,0.4261076955527313,0.5265609077163735,0.9488721411393194,0.430660803126965,0.08007435534303818,0.298207430059763,0.9446108044423899,0.1828251887593917,-0.2579600797795887,0.05250786791796319,0.682580754025865,766.7765567765568,815.5311355311355,800.6227106227107,759.92673992674,814.7252747252747,-0.064209,0.111572,0.999207,-0.373840,-1.899109,-0.979462,376336.996337,82528205.128205,24442564.102564,112.592743,1,1,1,1,1,30.000000
2568-11-19 12:01:19.682,,,,,,,,,,,,,,,,,,,,,,,,,,,,,,,,,,,,,,,,,,/muse/elements/blink
2568-11-19 12:01:20.083,0.5049484148438385,1.159600451761154,0.3267952157345562,0.9067215931517779,0.540864612478807,0.7055545316972315,0.1530585386204531,0.6616699817023953,0.2532396845365754,0.128992671588441,0.2773609860596989,1.119221017246064,0.4250960641224113,0.1643730101881918,0.2721173084689115,0.9007498076318357,0.2862068122901948,-0.4560640126771714,0.1192738731268755,0.6992593115148446,883.2234432234433,824.3956043956044,765.5677655677656,935.6043956043957,933.1868131868132,-0.049072,0.113220,0.999512,-0.448608,-2.033691,0.134583,375531.135531,82560439.560440,24464322.344322,112.592743,1,1,1,1,1,30.000000
2568-11-19 12:01:20.915,,,,,,,,,,,,,,,,,,,,,,,,,,,,,,,,,,,,,,,,,,/muse/elements/blink
2568-11-19 12:01:21.083,0.8922666674522772,1.119629305833943,0.7137501381436647,0.9274097263826881,0.5918581364112638,0.4131423332472161,0.4495911399331098,0.7010070680466205,0.629847181602485,0.2457302301316805,0.5408591941618931,1.134145829112319,0.47824245892213,0.2119069234036485,0.2458528996062797,0.8581786160731419,0.1324079506399946,-0.5250743435099197,-0.03197812643553064,0.6792980990581187,844.5421245421246,760.7326007326008,783.6996336996338,937.6190476190476,1198.315018315018,-0.064270,0.112427,0.993713,-0.261688,-1.689758,-0.456085,374725.274725,82530622.710623,24442564.102564,112.592743,1,1,1,1,1,30.000000
2568-11-19 12:01:22.089,0.6101327615812001,0.9880179840128352,0.4441425237070672,0.409996750706977,0.5124587738912111,0.3551220113597244,0.2263720763990128,0.5784055788129246,0.7702688818148383,0.2042261119763533,0.4869211436385528,1.277771659001439,0.5599370098880961,0.2000878840056213,0.3865712355538583,0.7798958660077649,0.2449491948894637,-0.5474843629481267,0.07220810474289949,0.7914105137527974,786.9230769230769,797.8021978021978,792.1611721611722,712.3809523809524,35.05494505494506,-0.062378,0.106873,0.995605,-0.127106,-2.145844,0.269165,373919.413919,82653113.553114,24474798.534799,112.592743,1,1,1,1,1,30.000000
2568-11-19 12:01:22.255,,,,,,,,,,,,,,,,,,,,,,,,,,,,,,,,,,,,,,,,,,/muse/elements/blink
2568-11-19 12:01:23.077,0.3871614708242614,1.03890875732065,0.7652749750756622,0.5616077142309648,0.5687633317685815,0.6848772131685915,0.470620514217352,0.6327626226006181,0.7809308151162399,0.3811685916351699,0.5217886561414777,1.29289707315673,0.6124377053592553,-0.01668199966936266,0.2889465118445738,0.7858452526949959,0.2527112736997983,-0.1457774991918904,0.2031501430330527,0.7575355225993968,878.3882783882784,806.6666666666667,790.1465201465202,957.3626373626374,1170.10989010989,-0.063416,0.111572,0.997620,-0.179443,-1.689758,-0.613098,374725.274725,82408937.728938,24432893.772894,112.592743,1,1,1,1,1,30.000000
2568-11-19 12:01:23.463,,,,,,,,,,,,,,,,,,,,,,,,,,,,,,,,,,,,,,,,,,/muse/elements/blink
2568-11-19 12:01:24.086,0.7720003722359481,1.133576853810973,0.9817158627359645,1.00253960990912,0.4301914977078533,0.5726520442783239,0.4703907429194942,0.9241737944793527,0.6454061787780238,0.3980327433060324,0.5558346424106146,1.052317674813615,0.4974885297654125,0.03839904014987338,0.3466569017829065,1.005298861635679,0.0791198386488451,-0.2505246895321467,0.06026145842285781,0.8555476794608095,826.007326007326,819.5604395604396,800.6227106227107,871.941391941392,1273.260073260073,-0.062012,0.099304,0.993103,-0.171967,-1.510315,-0.366364,377142.857143,82576556.776557,24428058.608059,112.592743,1,1,1,1,1,30.000000
2568-11-19 12:01:24.670,,,,,,,,,,,,,,,,,,,,,,,,,,,,,,,,,,,,,,,,,,/muse/elements/blink
2568-11-19 12:01:25.095,0.9225816718472161,1.009779979405109,0.6893902415701921,1.109736330708182,0.9772305698092231,0.6087358941506591,0.6183032725418254,0.9988330069609267,0.5686919749942982,0.6326265758649506,0.4469367216160793,0.7498236372352433,0.468291930885727,0.1532645874261259,0.2417725751489816,1.091140786016663,0.1917684179560294,-0.03946257119694549,-0.130656015844245,0.7828652385601876,815.5311355311355,780.8791208791209,811.5018315018315,792.5641025641025,344.1025641025641,-0.069275,0.094849,0.990662,0.059814,-1.704712,0.142059,375531.135531,82376703.296703,24409523.809524,112.592743,1,1,1,1,1,30.000000
2568-11-19 12:01:25.959,,,,,,,,,,,,,,,,,,,,,,,,,,,,,,,,,,,,,,,,,,/muse/elements/blink
2568-11-19 12:01:26.076,0.8495476518754194,1.377736639975145,0.6835000394077302,0.8339266333931484,0.8283155082199344,0.9377276622283736,0.5802005939200447,0.7195863577461034,0.6876878210349675,0.5878628088583279,0.3617243738928988,1.165897738425147,0.5722059855623758,0.3304519565825322,0.2296443591777578,1.038025219504893,0.2127640176436651,-0.1276255908833348,-0.1500612491378596,0.7697440299903561,879.5970695970697,815.934065934066,797.3992673992674,1003.699633699634,1415.091575091575,-0.063354,0.097656,0.992981,0.089722,-1.562653,-0.097198,377142.857143,82454065.934066,24408717.948718,112.592743,1,1,1,1,1,30.000000
2568-11-19 12:01:27.071,0.5847429017202155,0.9812318327667618,0.4255557270354241,0.8094276201814774,0.4994918511626573,0.6216948492127677,0.2357229334674409,0.582433377654442,0.621615240795613,0.5145062450161136,0.2478876809458253,1.207321128354161,0.5062910679024598,0.2312132777370949,0.3004217001841456,1.016754718741222,0.1539869042469234,-0.100139150182995,0.06547596914044576,0.6672525488360962,774.8351648351648,794.5787545787546,801.8315018315019,796.1904761904763,792.1611721611722,-0.065796,0.097961,0.989502,-0.680389,-1.248627,-1.084137,375531.135531,82502417.582418,24386959.706960,112.592743,1,1,1,1,1,30.000000
2568-11-19 12:01:27.190,,,,,,,,,,,,,,,,,,,,,,,,,,,,,,,,,,,,,,,,,,/muse/elements/blink
2568-11-19 12:01:28.118,0.638674953205602,0.9113357270326435,0.6342784351030321,0.5558793425672266,0.5633202297881416,0.391323984453736,0.1542856835896339,0.5506510391342522,0.6068120030128341,0.4502558637361032,0.1147620996028308,1.084833882908826,0.6028632254816115,0.2237808673755198,0.1725409377292806,1.074593094564401,0.3329758271562043,-0.09472310380494797,0.1697461899307654,0.6259027108479485,699.4871794871796,805.0549450549451,801.4285714285714,589.8901098901099,214.7619047619048,-0.066284,0.100220,0.995056,-0.127106,-0.800018,0.067291,377948.717949,82403296.703297,24382930.402930,112.592743,1,1,1,1,1,30.000000
2568-11-19 12:01:28.503,,,,,,,,,,,,,,,,,,,,,,,,,,,,,,,,,,,,,,,,,,/muse/elements/blink
2568-11-19 12:01:29.106,0.4891495481004694,1.225846330001386,0.825699254846011,0.4421055926258599,0.5058489999136524,0.6933516938454415,0.484349488462572,0.6464666905789296,0.5023857599005969,0.4311847708787176,0.2788163265041296,0.7253288613434116,0.7320650817686595,0.2335347996774864,0.3340442482637447,1.264876581948642,0.5766548906916507,-0.1237508787272876,0.113039226238966,0.8197128883559665,871.1355311355312,806.2637362637363,788.1318681318681,953.3333333333334,1293.003663003663,-0.057007,0.087891,0.997803,-0.747681,-4.329071,-1.300964,378754.578755,82437142.857143,24373260.073260,112.592743,1,1,1,1,1,30.000000
2568-11-19 12:01:29.635,,,,,,,,,,,,,,,,,,,,,,,,,,,,,,,,,,,,,,,,,,/muse/elements/blink
2568-11-19 12:01:29.805,,,,,,,,,,,,,,,,,,,,,,,,,,,,,,,,,,,,,,,,,,/muse/elements/blink
2568-11-19 12:01:30.089,0.4891495481004694,0.9543953155795808,0.5274461935907496,0.55347725679728,0.5058489999136524,0.5181462448901528,0.3611334778555735,0.7179779170588924,0.5023857599005969,0.5419043240655458,0.3260222701175548,0.6927644002952793,0.7320650817686595,0.2184198890669057,0.3764504624469286,1.339344517772874,0.5766548906916507,0.06755552695996224,0.1223734870597852,0.9931476856287734,774.4322344322345,801.4285714285714,788.1318681318681,691.8315018315019,105.1648351648352,-0.058838,0.093750,1.001465,0.224304,-1.480408,1.016846,377142.857143,82333992.673993,24378095.238095,112.592743,1,1,1,1,1,30.000000
2568-11-19 12:01:30.965,,,,,,,,,,,,,,,,,,,,,,,,,,,,,,,,,,,,,,,,,,/muse/elements/blink
2568-11-19 12:01:31.075,0.6008479105201734,0.6975521241739741,0.6477731698024412,0.6102989088272336,0.6880139184247379,0.4191434393623316,0.2431495103376067,0.4678364468715953,0.8037434430178526,0.399474471455939,0.2578759849660268,0.874006812242348,0.6888358167208457,0.2002951261775646,0.3066462627513988,0.9980252396579939,0.2113323874709365,0.01070370660941091,0.05506164708734771,0.6749634253838096,777.2527472527473,792.5641025641025,788.9377289377289,713.1868131868132,93.88278388278388,-0.048035,0.095276,1.007202,-0.097198,-1.929016,0.882263,378754.578755,82505641.025641,24391794.871795,112.592743,1,1,1,1,1,30.000000
2568-11-19 12:01:32.083,0.7158342884532654,0.8907600047040248,0.765260512533965,0.60598391784449,0.6647932041819604,0.5931510588119889,0.2413564253290124,0.4567823137253791,0.8260646845597842,0.4737009186021525,0.2717395101922433,0.874006812242348,0.6329570403589196,0.2642663392969476,0.3124530435256039,1.002077864294237,0.3332846058149697,-0.2638328313717663,-0.05876006741975327,1.102553872011261,751.0622710622711,798.2051282051282,795.7875457875458,667.6556776556777,754.2857142857143,-0.047424,0.097473,1.003601,0.366364,-2.512207,0.650482,379560.439560,82246959.706960,24365201.465201,112.592743,1,1,1,1,1,30.000000
2568-11-19 12:01:32.181,,,,,,,,,,,,,,,,,,,,,,,,,,,,,,,,,,,,,,,,,,/muse/elements/blink
2568-11-19 12:01:33.106,0.6799087655092586,0.4889602291279486,0.3655971660452558,0.7351476921900369,0.4985620189699981,0.0474142912560255,0.07613589048574039,0.4081132201884255,0.674194210630455,0.3883243536701605,0.4316158162661852,-0.04816056879549147,0.5881576370638388,0.2376211707443942,0.2679221507921167,1.070992437308517,0.2164606225797909,-0.2825837970263586,-0.008489639249418651,1.326659296458271,708.3516483516484,806.2637362637363,794.1758241758242,591.9047619047619,95.4945054945055,-0.048584,0.078064,0.987915,-0.142059,-2.392578,-0.710297,381172.161172,82433113.553114,24399047.619048,112.592743,1,1,1,1,1,30.000000
2568-11-19 12:01:33.333,,,,,,,,,,,,,,,,,,,,,,,,,,,,,,,,,,,,,,,,,,/muse/elements/blink
2568-11-19 12:01:34.113,0.5205305649429078,0.9320259990493167,0.8987549980864872,0.9017050732162393,0.3990737708554354,0.7368024600439086,0.3499854494061245,0.6565345695298012,0.8252116932728066,0.6203284379852346,0.5154676913087389,0.8946525945836548,0.2487255177510115,0.3076821028344405,0.4139070463064332,1.030172371790135,0.1718806896261318,-0.1671426446508475,0.05015334527708409,0.8621472010935957,832.0512820512821,792.5641025641025,798.6080586080586,836.4835164835165,479.0842490842491,-0.060669,0.080444,0.996887,0.396271,-0.725250,-0.171967,380366.300366,82286446.886447,24361978.021978,112.592743,1,1,1,1,1,30.000000
2568-11-19 12:01:34.695,,,,,,,,,,,,,,,,,,,,,,,,,,,,,,,,,,,,,,,,,,/muse/elements/blink
2568-11-19 12:01:35.093,0.6324838644748971,0.778390863630591,0.6283416598091605,0.4607704715350741,0.4921472590301263,0.4109180158886945,0.2021772424737579,0.594731855383188,0.6875773825471418,0.633860096296409,0.3104932110210106,0.9327006624218264,0.3508970897159919,0.2526446942534295,0.335342483633769,1.046247216809426,0.1189957172955472,-0.1106980837712443,-0.04185012984098429,0.8454936243577406,695.8608058608058,790.5494505494506,793.3699633699634,637.4358974358975,477.8754578754579,-0.065674,0.075378,0.989746,-0.209351,-1.652374,0.388794,377142.857143,82401684.981685,24383736.263736,112.592743,1,1,1,1,1,30.000000
2568-11-19 12:01:35.821,,,,,,,,,,,,,,,,,,,,,,,,,,,,,,,,,,,,,,,,,,/muse/elements/blink
2568-11-19 12:01:36.080,0.371404594947261,0.4219266964476116,0.09929571305264069,0.2946491464091369,0.5855759581101753,-0.1140016978353362,-0.129125915497397,0.1991420100064672,0.6872821742805459,0.2589997329006225,0.3376055309916209,0.8927410222254467,0.4179005465160051,0.126284935304491,0.4149932043063883,0.9866935548739749,0.07172610012899622,-0.04115674157523572,0.03270056729827343,0.7381399506327999,774.8351648351648,804.2490842490843,800.6227106227107,695.8608058608058,283.6630036630037,-0.054016,0.077271,1.001526,-0.328979,-1.876678,-0.396271,377948.717949,82238901.098901,24352307.692308,112.592743,1,1,1,1,1,30.000000
2568-11-19 12:01:36.458,,,,,,,,,,,,,,,,,,,,,,,,,,,,,,,,,,,,,,,,,,/muse/elements/blink
2568-11-19 12:01:37.047,,,,,,,,,,,,,,,,,,,,,,,,,,,,,,,,,,,,,,,,,,/muse/elements/blink
2568-11-19 12:01:37.104,0.7171955466560442,1.114923675253314,0.09610401731699629,0.4177018455337878,0.673092309010338,0.3740664801383168,-0.3046273058332582,0.3720719901876204,0.5996754322363236,0.3475780381865216,0.1890628028362465,0.8817136193691487,0.4912791712761353,0.09974419196617464,0.4012267613811155,1.058140529826881,0.1123071963548512,-0.2026305501198019,0.1153260503463442,0.7321962256376644,881.2087912087912,796.5934065934066,788.5347985347986,978.7179487179487,1024.249084249084,-0.065796,0.086304,1.002136,0.336456,-1.487885,0.904694,377142.857143,82425054.945055,24374065.934066,112.592743,1,1,1,1,1,30.000000
2568-11-19 12:01:38.067,0.5111887711260138,1.09869828407076,0.8794984773521244,0.2919903987234457,0.5652608880876203,0.3070768187516212,0.5664299865541937,0.5984559701483936,0.4764139982131709,0.413863636709375,0.4826078586571546,1.113031396701834,0.4085644363796038,0.2177611607495379,0.4611653474453454,0.9606943356648544,0.2135845616372739,-0.1298681293635956,0.2648421594259646,0.7206783309204744,705.1282051282052,800.2197802197802,799.8168498168499,621.3186813186813,181.7216117216117,-0.070618,0.092407,1.004639,0.074768,-1.375732,-1.323395,377948.717949,82161538.461538,24328131.868132,112.592743,1,1,1,1,1,30.000000
2568-11-19 12:01:38.286,,,,,,,,,,,,,,,,,,,,,,,,,,,,,,,,,,,,,,,,,,/muse/elements/blink
2568-11-19 12:01:39.108,0.4339229832022314,0.4703593791703565,0.1500849277381817,0.2205020744483617,0.4632216458860011,-0.006499905464151744,0.00089042127886428,0.2242441409785421,0.6263947746046421,0.5147876437395364,0.05427750962060892,1.112246417309122,0.4077755173743379,0.2702436193137811,0.2738571844381225,1.046369655612048,0.1808148733596117,-0.03803234742856418,0.3627300838905405,0.700427433706817,830.4395604395604,796.996336996337,787.7289377289378,853.8095238095239,595.934065934066,-0.078918,0.083130,0.999756,-0.478516,-1.495361,-0.254211,375531.135531,82248571.428571,24311208.791209,112.592743,1,1,1,1,1,30.000000
2568-11-19 12:01:39.510,,,,,,,,,,,,,,,,,,,,,,,,,,,,,,,,,,,,,,,,,,/muse/elements/blink
2568-11-19 12:01:40.079,0.7065779907022587,0.9341866697185797,0.5507913829256775,0.6983803221838578,0.6677683921794553,0.1984036455978606,-0.04230736154273991,0.7161177875319578,0.788426453999037,0.4961362008118349,0.2746741847892999,1.020758405734978,0.3525740269687601,0.1626033832252568,0.1792704746922001,1.097581334689188,0.145161379632135,-0.05590567220690942,0.2699225364822146,0.7262779542255584,692.2344322344322,791.7582417582418,801.8315018315019,618.0952380952381,174.4688644688645,-0.064941,0.083191,1.002319,0.022430,-1.869202,-0.328979,377142.857143,82211501.831502,24312014.652015,112.592743,1,1,1,1,1,30.000000
2568-11-19 12:01:40.699,,,,,,,,,,,,,,,,,,,,,,,,,,,,,,,,,,,,,,,,,,/muse/elements/blink
2568-11-19 12:01:41.080,0.5370718526031086,0.9468993581288873,0.9965163846513124,0.7590027482773998,0.7244506966195341,0.4138399702498449,0.3018306792304611,0.4063349425497845,0.8700204517490612,0.313298366802856,0.2913252549121652,0.8972291076977907,0.4358948586607185,0.11756739694974,0.3278006486284733,0.9750603177735658,0.2877470571825165,-0.07011404516805912,0.2234732549442477,0.7581675683031137,765.9706959706959,795.3846153846154,798.2051282051282,709.5604395604396,173.2600732600733,-0.072083,0.081238,0.995239,-0.224304,-1.286011,0.104675,378754.578755,82143003.663004,24313626.373626,112.592743,1,1,1,1,1,30.000000
2568-11-19 12:01:41.906,,,,,,,,,,,,,,,,,,,,,,,,,,,,,,,,,,,,,,,,,,/muse/elements/blink
2568-11-19 12:01:42.106,0.6527883809731161,-0.008291087032779696,0.9381069820311571,0.708223092941458,0.6642809503786876,-0.1496893096280148,0.3277251860158163,0.6456234764367642,0.9790530780974918,0.2592152503528616,0.521084991354175,1.295310607180291,0.518755106293868,0.2280125533362601,0.4252531048543718,0.9223211736806469,0.2577704835869098,-0.1218135589605155,0.1311959323317011,0.6511043224353146,879.5970695970697,805.4578754578755,788.5347985347986,970.2564102564103,1098.791208791209,-0.061096,0.086243,1.008118,0.725250,-3.080444,0.792542,377142.857143,82221978.021978,24353919.413919,112.592743,1,1,1,1,1,30.000000
2568-11-19 12:01:43.090,0.5587465269302851,0.1879845798330936,0.255475402922996,0.4040702260819193,0.3297304530173075,-0.2273276979696335,0.2030239239497152,0.5952815471799008,0.7321722685168627,0.3233890565804269,0.214153223597195,1.21466934293995,0.5588400117238218,0.239245805712398,0.4123710331084053,0.9710662255639644,0.1395444654906937,-0.1474543504839048,0.1238516128159091,0.6450438067085849,706.3369963369963,791.7582417582418,792.1611721611722,593.5164835164835,0,-0.065247,0.091553,0.995178,-0.052338,-2.512207,-0.224304,377142.857143,82055970.695971,24319267.399267,112.592743,1,1,1,1,1,30.000000
2568-11-19 12:01:43.260,,,,,,,,,,,,,,,,,,,,,,,,,,,,,,,,,,,,,,,,,,/muse/elements/blink
2568-11-19 12:01:44.086,0.679296336509729,0.7158964547126612,0.6835739024153777,0.4278213137678988,0.5193728680402707,0.1774039940440569,0.4554837382835313,0.5529230309945538,0.6221873418949408,0.3042059720392581,0.3061938425638486,1.084877136635665,0.5735125471268488,0.2040379924085362,0.4183189657126082,1.055142851531929,0.3137541023176794,-0.1180620333059397,0.1977431976852194,0.756282432138524,827.6190476190476,796.1904761904763,782.893772893773,844.9450549450549,628.974358974359,-0.061523,0.082520,0.999146,-0.104675,-2.235565,-0.328979,375531.135531,82144615.384615,24326520.146520,112.592743,1,1,1,1,1,30.000000
2568-11-19 12:01:44.440,,,,,,,,,,,,,,,,,,,,,,,,,,,,,,,,,,,,,,,,,,/muse/elements/blink
2568-11-19 12:01:45.096,0.3953848117781114,0.2473047509698102,0.5350003163051682,0.3392803644042952,0.4349410239712138,-0.007149269903155268,0.189553203654442,0.4486119146387507,0.4159151981054586,0.3728321391651487,0.3540673225721581,0.73200724454519,0.4207866910512227,0.1646570156203113,0.2684191621505318,0.9818526399805247,0.1703607826431231,-0.1654109048907181,0.1975073235474384,0.6196184006803427,862.6739926739926,810.2930402930403,793.7728937728938,967.032967032967,1238.205128205128,-0.057434,0.087097,0.994751,0.104675,-1.263580,-0.358887,377142.857143,82030183.150183,24333772.893773,112.592743,1,1,1,1,1,30.000000
2568-11-19 12:01:45.658,,,,,,,,,,,,,,,,,,,,,,,,,,,,,,,,,,,,,,,,,,/muse/elements/blink
2568-11-19 12:01:46.099,0.5673061873214331,0.5868674417350864,0.4152788997233305,0.663494926680294,0.2148508237624296,0.4400822225242629,0.1563483327498469,0.7270311130528034,0.6181034312175101,0.6339652255167222,0.439538868868028,1.233214379072741,0.4710775597044596,0.112375630699106,0.3189616851866099,0.9858042323404205,0.0006992609221472587,-0.1405390045619496,0.120951246634032,0.6621067895662615,763.956043956044,791.3553113553114,795.3846153846154,694.6520146520147,26.19047619047619,-0.064514,0.086426,0.997681,-0.104675,-2.130890,-0.583191,374725.274725,82098681.318681,24326520.146520,112.592743,1,1,1,1,1,30.000000
2568-11-19 12:01:46.993,,,,,,,,,,,,,,,,,,,,,,,,,,,,,,,,,,,,,,,,,,/muse/elements/blink
2568-11-19 12:01:47.106,0.6609920187112582,1.099999378700938,0.7001920759089307,0.7350442504137552,0.2006653451697174,0.6022063818182128,0.1994017277113443,0.7421149214954932,0.6958586167091078,0.6542431882166193,0.3027381491691928,1.233214379072741,0.4421402015688399,0.2657856584278683,0.2847805581526062,1.061466171727553,0.1046539557205113,-0.158328556716022,0.1973243914770362,0.8507454300154133,894.5054945054945,791.7582417582418,792.1611721611722,965.4212454212454,1130.21978021978,-0.052734,0.086731,1.000977,-0.299072,-2.534637,0.530853,372307.692308,82082564.102564,24347472.527473,112.592743,1,1,1,1,1,30.000000
2568-11-19 12:01:48.083,0.3071539089380314,1.058386044142052,0.8212113848337442,0.5709746023062696,0.2844947876678651,0.5633609917071039,0.0565231157015773,0.3626161658005764,0.6840911341254409,0.7171074950356168,0.240451624521292,0.9190684367444243,0.4729896798493182,0.3768467001167608,0.2453911236277118,1.026207719773058,0.200478665358878,-0.2233739859461575,0.1845297528300765,0.8200379236907033,812.7106227106227,787.7289377289378,790.5494505494506,867.9120879120879,1075.824175824176,-0.055786,0.090088,0.998413,-0.314026,-1.929016,-0.261688,374725.274725,82029377.289377,24357142.857143,112.592743,1,1,1,1,1,30.000000
2568-11-19 12:01:48.138,,,,,,,,,,,,,,,,,,,,,,,,,,,,,,,,,,,,,,,,,,/muse/elements/blink
2568-11-19 12:01:49.097,0.3543917128816338,0.380189035849901,0.4161837394054253,0.4706701000074976,0.3344290795664441,0.2521153507774755,-0.1845306555118983,0.5170403174425386,0.4666201440734162,0.5838320365194343,0.2475562690438116,0.8750903270762412,0.2829703541560966,-0.02669500150436089,0.2127887246009825,0.9323349409822105,0.08728464802757066,-0.1988361973276402,0.118521087446167,0.7098812422420148,826.8131868131868,796.5934065934066,792.5641025641025,811.9047619047619,382.7838827838828,-0.059692,0.094788,1.005066,-0.037384,-2.848663,0.239258,375531.135531,82202637.362637,24368424.908425,112.592743,1,1,1,1,1,30.000000
2568-11-19 12:01:49.315,,,,,,,,,,,,,,,,,,,,,,,,,,,,,,,,,,,,,,,,,,/muse/elements/blink
2568-11-19 12:01:50.094,0.5656077115677319,0.3986462094656187,0.2292483925000118,0.2714413227329812,0.543149885794433,0.206166092695597,0.04801135097812838,0.4934745687499887,0.5818477663406414,0.2916617362713637,0.2445732967283555,0.9649839888428784,0.4470429880900955,0.04477501628808613,0.2836237758366025,0.9814963498309922,0.07004940722343884,-0.223740588790849,0.03367302458796438,0.7065992447771003,866.7032967032967,802.6373626373627,786.9230769230769,968.2417582417582,1443.699633699634,-0.061584,0.074463,0.990234,1.764526,-1.697235,1.764526,375531.135531,82002783.882784,24333772.893773,112.592743,1,1,1,1,1,30.000000
2568-11-19 12:01:50.623,,,,,,,,,,,,,,,,,,,,,,,,,,,,,,,,,,,,,,,,,,/muse/elements/blink
