TimeStamp,Delta_TP9,Delta_AF7,Delta_AF8,Delta_TP10,Theta_TP9,Theta_AF7,Theta_AF8,Theta_TP10,Alpha_TP9,Alpha_AF7,Alpha_AF8,Alpha_TP10,Beta_TP9,Beta_AF7,Beta_AF8,Beta_TP10,Gamma_TP9,Gamma_AF7,Gamma_AF8,Gamma_TP10,RAW_TP9,RAW_AF7,RAW_AF8,RAW_TP10,AUX_RIGHT,Accelerometer_X,Accelerometer_Y,Accelerometer_Z,Gyro_X,Gyro_Y,Gyro_Z,PPG_Ambient,PPG_IR,PPG_Red,Heart_Rate,HeadBandOn,HSI_TP9,HSI_AF7,HSI_AF8,HSI_TP10,Battery,Elements
2568-11-19 12:09:47.138,,,,,,,,,,,,,,,,,,,,,,,,,,,,,,,,,,,,,,,,,,/muse/event/connected Muse-2184
2568-11-19 12:09:47.344,,,,,,,,,,,,,,,,,,,,,,,,,,,,,,,,,,,,,,,,,,/muse/elements/blink
2568-11-19 12:09:47.416,,,,,,,,,,,,,,,,,,,,,,,,,,,,,,,,,,,,,,,,,,/muse/elements/blink
2568-11-19 12:09:47.478,,,,,,,,,,,,,,,,,,,,,,,,,,,,,,,,,,,,,,,,,,/muse/elements/blink
2568-11-19 12:09:47.534,,,,,,,,,,,,,,,,,,,,,,,,,,,,,,,,,,,,,,,,,,/muse/elements/blink
2568-11-19 12:09:48.182,1.928012313815301,0.9463380563010118,1.060472424077374,1.339032657851104,1.736017859168539,0.6282938432594504,0.9157119095019604,1.143131697994148,1.869703408761576,0.7434334940575787,0.9695299865873734,1.008239519399881,1.621347080492356,0.5582303676975366,0.6554202962375444,0.9016033502983734,0.7003536223511102,0.089242614352657,0.5321233034074629,0.6378080642319991,546.3736263736264,786.1172161172161,785.7142857142858,794.1758241758242,517.3626373626374,-0.102051,0.071655,0.989868,0.007477,-3.132782,-1.128998,348937.728938,97221465.201465,48827912.087912,112.592743,1,2,1,1,2,30.000000
2568-11-19 12:09:49.173,1.928012313815301,0.7530913836328251,0.8835875504763868,1.339032657851104,1.736017859168539,0.5475232733839113,0.5560237912903657,1.143131697994148,1.869703408761576,0.6806151132557259,0.6244260047085469,1.008239519399881,1.621347080492356,0.5762379441592712,0.704089986428075,0.9016033502983734,0.7003536223511102,0.2751562433466714,0.4719414609777408,0.6378080642319991,775.2380952380953,791.7582417582418,801.8315018315019,756.7032967032967,1254.322344322344,-0.091858,0.062500,1.002075,-0.777588,-2.138367,-0.358887,351355.311355,97088498.168498,48824688.644689,112.592743,1,2,1,1,2,30.000000
2568-11-19 12:09:50.186,1.296459716725557,0.310150775737867,0.3164226943482765,0.4956156743513245,1.823575391295402,-0.1421160019389156,0.2403572386951878,0.3388150957268523,1.519795655001257,0.526593706070025,0.5209174057112558,0.3228576060977665,1.41019251368993,0.4854742709990933,0.6515791444899282,1.037951626951614,0.869363710998878,0.3790963812828302,0.3680126995172033,0.6450049082591385,761.1355311355312,746.2271062271062,792.1611721611722,764.7619047619048,630.989010989011,-0.089478,0.059998,0.998901,-0.067291,-1.443024,-0.134583,350549.450549,97264175.824176,48826300.366300,112.592743,1,1,1,1,1,30.000000
2568-11-19 12:09:50.910,,,,,,,,,,,,,,,,,,,,,,,,,,,,,,,,,,,,,,,,,,/muse/elements/blink
2568-11-19 12:09:51.174,1.244198183717611,0.8294207487153394,0.7054150798704133,0.8673980380541451,1.857666116496261,0.2565077433304684,0.5919157820997105,0.8930741923769526,1.459330688035019,0.6102845026810533,0.82151610908967,0.9796985560875882,1.420206313659693,0.4720827079550728,0.5711083789950311,0.9091175714350416,0.8714623444559487,0.3099879348949708,0.3266546828990194,0.6625819882302487,584.6520146520147,789.3406593406594,765.5677655677656,409.3772893772894,697.8754578754579,-0.088684,0.062317,0.995056,-0.119629,-1.517792,-0.127106,348131.868132,97273846.153846,48835164.835165,112.592743,1,1,1,1,1,30.000000
2568-11-19 12:09:52.146,1.244198183717611,0.8071646459988073,0.9081506793613983,1.120937231545429,1.857666116496261,0.4237990190518595,0.6446872018124287,0.8946515690071949,1.459330688035019,0.6814665270872261,0.7811483620416615,0.9348061516624326,1.420206313659693,0.2449553390630313,0.5534182150742272,0.8629677498988384,0.8714623444559487,0.267352502075819,0.3590996799108156,0.7961002248494663,1197.509157509158,784.1025641025641,781.2820512820513,1148.754578754579,861.8681318681319,-0.074707,0.057129,1.001587,-0.134583,-1.143951,0.216827,351355.311355,97113479.853480,48747326.007326,112.592743,1,1,1,1,1,30.000000
2568-11-19 12:09:52.202,,,,,,,,,,,,,,,,,,,,,,,,,,,,,,,,,,,,,,,,,,/muse/elements/blink
2568-11-19 12:09:53.141,1.244198183717611,0.8456995596631782,0.8276501322150116,1.12422095366312,1.857666116496261,0.5747017503599973,0.5940347772318919,1.088090589262974,1.459330688035019,0.6715454155800815,0.6900886642086503,1.140941060359107,1.420206313659693,0.3645619708189201,0.4638126041597105,0.9058553581091003,0.8714623444559487,0.06098677050287136,0.3184748332880891,0.7130529426950051,882.8205128205128,765.1648351648352,771.2087912087912,980.3296703296703,790.952380952381,-0.080200,0.061707,0.998718,-0.314026,-1.861725,-0.530853,351355.311355,97165860.805861,48759413.919414,112.592743,1,1,1,1,1,30.000000
2568-11-19 12:09:53.638,,,,,,,,,,,,,,,,,,,,,,,,,,,,,,,,,,,,,,,,,,/muse/elements/blink
2568-11-19 12:09:54.181,1.244198183717611,0.9407818477618081,0.6068480906782661,1.045282284006832,1.857666116496261,0.386850240516283,0.2856576862904776,1.108510803054132,1.459330688035019,0.5827858941250277,0.5031602242411738,1.204247079243421,1.420206313659693,0.3902763105301218,0.5076919025921202,0.9289456346988998,0.8714623444559487,0.2949034375697842,0.3751560666001252,0.7981623798959198,840.9157509157509,790.5494505494506,780.8791208791209,394.4688644688645,649.5238095238095,-0.068787,0.063721,0.999023,0.044861,-2.579498,0.740204,351355.311355,97140879.120879,48673186.813187,112.592743,1,1,1,1,1,30.000000
2568-11-19 12:09:55.190,1.262121198736987,0.7602921197772864,0.6205529121065978,1.03427892804307,0.9132455506874885,0.3215400417102259,0.1553295713535938,1.043220675666525,1.275244619922308,0.4421117442808331,0.5265188223999701,1.006773363785124,0.7866218914109497,0.3678839405409224,0.5324197542991221,0.9574035128044998,0.2382333919569636,0.1878886869196967,0.3687575830481634,0.8871888773663064,721.2454212454213,782.4908424908425,771.2087912087912,249.010989010989,457.7289377289378,-0.066833,0.061951,0.997864,0.299072,-2.863617,1.286011,351355.311355,96989377.289377,48622417.582418,112.592743,1,1,1,1,1,30.000000
2568-11-19 12:09:55.191,,,,,,,,,,,,,,,,,,,,,,,,,,,,,,,,,,,,,,,,,,/muse/elements/blink
2568-11-19 12:09:56.170,1.132765200812079,0.5663739485518455,0.6151634839938661,1.096375940782172,1.037454927426117,0.4162467837945373,0.2195255222747395,1.259890093333085,1.219015662964562,0.2786585380938131,0.4550008243571275,1.0600157347811,0.8103684197122337,0.5212052859712366,0.5599677310981902,0.9488275542464847,0.3624546675436857,0.06384705354365997,0.4352868693666187,0.8857690733107648,692.6373626373627,786.5201465201466,778.4615384615385,765.1648351648352,329.5970695970696,-0.060730,0.063538,1.000854,-0.680389,-1.704712,-0.598145,350549.450549,97123956.043956,48590183.150183,112.592743,1,1,1,1,1,30.000000
2568-11-19 12:09:56.485,,,,,,,,,,,,,,,,,,,,,,,,,,,,,,,,,,,,,,,,,,/muse/elements/blink
2568-11-19 12:09:57.190,1.426171562680656,0.6875997899630319,0.610974818204303,1.112585623375345,1.508192865466348,0.6164995027830953,0.4952246417586006,1.350954316187425,1.504090969017384,0.4417824349948549,0.2163805964618587,1.014269547914365,0.9183587652887072,0.3659742078419637,0.4486667210728859,0.9067818393680916,0.2794268221040282,0.1205759569550605,0.4866614483835412,0.878795918734946,922.3076923076924,794.5787545787546,782.4908424908425,679.7435897435897,739.3772893772893,-0.054626,0.058105,0.998779,-0.179443,-3.633728,-0.889740,350549.450549,96884615.384615,48554725.274725,112.592743,1,1,1,1,1,30.000000
2568-11-19 12:09:57.711,,,,,,,,,,,,,,,,,,,,,,,,,,,,,,,,,,,,,,,,,,/muse/elements/blink
2568-11-19 12:09:58.163,1.790005475361117,0.7809567718637137,0.6064595499533848,1.11551436156766,2.158059633435883,0.2865207092963997,0.2991621566364456,1.388955918372089,1.96372482937914,0.3480452542354586,0.4166979651177209,0.9976715931833103,1.370871850087085,0.3934739281668618,0.4460255911286636,0.8455753183299608,0.2876036368904248,0.03130113671474075,0.3524354540655083,0.8823727869476963,716.4102564102565,790.952380952381,782.893772893773,1011.355311355311,1264.798534798535,-0.060547,0.062256,1.002625,0.530853,-1.076660,-0.463562,350549.450549,96805641.025641,48518461.538462,112.592743,1,1,1,1,1,30.000000
2568-11-19 12:09:59.172,1.840757581055819,0.7587576100692371,0.7604635382430637,1.11551436156766,2.324769993349065,0.249258609817931,0.2513244677089183,1.388955918372089,1.96372482937914,0.6248444196105468,0.5005967939617744,0.9976715931833103,1.513572273738485,0.4420882993805788,0.5660666477888713,0.8455753183299608,0.3721744610280709,0.08245075469231218,0.1924407068907599,0.8823727869476963,734.9450549450549,804.6520146520147,790.5494505494506,546.7765567765568,368.6813186813187,-0.062073,0.062195,1.002014,-0.433655,-1.614990,0.508423,349743.589744,96968424.908425,48482197.802198,112.592743,1,1,1,1,1,30.000000
2568-11-19 12:09:59.175,,,,,,,,,,,,,,,,,,,,,,,,,,,,,,,,,,,,,,,,,,/muse/elements/blink
2568-11-19 12:10:00.144,1.840757581055819,0.4852852818142977,0.5455291383869576,1.11551436156766,2.324769993349065,0.3856926269614512,0.3626372326758961,1.388955918372089,1.96372482937914,0.6785547329973112,0.3098994039966183,0.9976715931833103,1.513572273738485,0.2292962040767552,0.6312810338606557,0.8455753183299608,0.3721744610280709,0.0008845679242604418,0.2411833097332148,0.8823727869476963,832.0512820512821,794.1758241758242,790.1465201465202,920.6959706959707,795.3846153846154,-0.068787,0.055725,0.999329,-0.037384,-1.704712,0.485992,352161.172161,96650109.890110,48462051.282051,112.592743,1,2,1,1,2,30.000000
2568-11-19 12:10:00.559,,,,,,,,,,,,,,,,,,,,,,,,,,,,,,,,,,,,,,,,,,/muse/elements/blink
2568-11-19 12:10:01.161,1.840757581055819,0.2460970970025879,0.2264799405005791,0.3750059584779207,2.324769993349065,0.09397387660010589,0.3305417901502829,1.225952423215739,1.96372482937914,0.4879529009786484,0.4387388220089021,0.9961892015739818,1.513572273738485,0.2362254692283122,0.686912157926666,1.050899652230502,0.3721744610280709,-0.03007844221776133,0.2217694785005956,0.8434028640661421,691.4285714285714,784.1025641025641,794.981684981685,823.992673992674,539.5238095238095,-0.069519,0.058350,0.996948,-0.164490,-1.727142,-0.119629,349743.589744,96795164.835165,48478974.358974,112.592743,1,1,1,1,1,30.000000
2568-11-19 12:10:01.646,,,,,,,,,,,,,,,,,,,,,,,,,,,,,,,,,,,,,,,,,,/muse/elements/blink
2568-11-19 12:10:01.856,,,,,,,,,,,,,,,,,,,,,,,,,,,,,,,,,,,,,,,,,,/muse/elements/blink
2568-11-19 12:10:02.168,1.840757581055819,0.5933785312193213,0.4522813009064724,0.3697277645103665,2.324769993349065,-0.129514188557431,0.3652901721520455,1.202361569548528,1.96372482937914,0.226233660176166,0.2068801925293451,0.9890801370329331,1.513572273738485,0.2545834815607845,0.599414205557,1.040532881785344,0.3721744610280709,-0.04046139020607186,0.306603096906833,0.8434774976442094,695.8608058608058,795.7875457875458,783.6996336996338,1298.644688644689,772.8205128205128,-0.071167,0.059265,0.999634,-0.179443,-1.091614,-0.515900,351355.311355,96715384.615385,48433846.153846,112.592743,1,1,1,1,1,30.000000
2568-11-19 12:10:02.975,,,,,,,,,,,,,,,,,,,,,,,,,,,,,,,,,,,,,,,,,,/muse/elements/blink
2568-11-19 12:10:03.187,1.840757581055819,0.6105335487479782,0.3706422008826381,0.3697277645103665,2.324769993349065,-0.08816115432707258,0.3689754601256459,1.202361569548528,1.96372482937914,0.1966716980619206,0.5222014250532943,0.9890801370329331,1.513572273738485,0.1994339809475321,0.4680312602970243,1.040532881785344,0.3721744610280709,-0.1173097904378188,0.2182354509405556,0.8434774976442094,928.3516483516484,786.5201465201466,799.0109890109891,803.040293040293,740.5860805860806,-0.078918,0.053223,0.998474,-0.074768,-1.966400,-0.366364,351355.311355,96732307.692308,48441904.761905,112.592743,1,1,1,1,1,30.000000
2568-11-19 12:10:04.168,1.840757581055819,0.5744249460441867,0.3817463656255369,0.3697277645103665,2.324769993349065,0.3344316163445153,0.5068122891335006,1.202361569548528,1.96372482937914,0.4399521032512981,0.7109716741232379,0.9890801370329331,1.513572273738485,0.2920203889843187,0.3484966018213284,1.040532881785344,0.3721744610280709,-0.1125261872775819,0.1509428666392807,0.8434774976442094,796.5934065934066,806.2637362637363,802.6373626373627,937.2161172161173,866.3003663003664,-0.078125,0.058899,1.000061,-0.351410,-1.973877,0.037384,352967.032967,96787106.227106,48458827.838828,112.592743,1,2,1,1,2,30.000000
2568-11-19 12:10:04.807,,,,,,,,,,,,,,,,,,,,,,,,,,,,,,,,,,,,,,,,,,/muse/elements/blink
2568-11-19 12:10:05.162,1.457885474000562,0.6332715796466282,0.6260341983895417,1.505702273526382,1.136872595026104,0.3257190050910808,0.4082155572473246,0.9598737550769378,1.246417671655834,0.44140849069823,0.321249638152863,1.147307363765538,1.168570761294068,0.2320985599754137,0.291083828740665,0.8240576304363555,0.1935501248553223,-0.1261934735119266,0.0395133960094266,0.378778871910872,852.6007326007326,788.9377289377289,777.2527472527473,679.7435897435897,565.7142857142858,-0.069031,0.061707,1.006226,-0.052338,-1.353302,0.239258,351355.311355,96509890.109890,48424981.684982,112.592743,1,1,1,1,1,30.000000
2568-11-19 12:10:05.910,,,,,,,,,,,,,,,,,,,,,,,,,,,,,,,,,,,,,,,,,,/muse/elements/blink
2568-11-19 12:10:06.171,1.603931362743756,0.2126493602823627,0.6212785103708236,1.548439297565362,1.197560395201766,0.05688206055438232,0.3858412810523535,1.0222777113105,1.544186237292352,0.6454424915724153,0.5392734683262913,1.132701021420726,1.226197144737694,0.2433565304669569,0.3290018190116382,0.8438608118018552,0.2923318941417022,0.009525913750214804,0.1377839126220503,0.3009090920963022,897.3260073260074,799.8168498168499,800.6227106227107,1005.311355311355,1040.3663003663,-0.065002,0.057617,0.998535,-0.186920,-1.943970,0.157013,350549.450549,96713772.893773,48426593.406593,112.592743,1,1,1,1,1,30.000000
2568-11-19 12:10:07.035,,,,,,,,,,,,,,,,,,,,,,,,,,,,,,,,,,,,,,,,,,/muse/elements/blink
2568-11-19 12:10:07.140,1.701855382295562,0.4348621046286545,0.739429853646987,1.548439297565362,1.298243529093677,0.2278154015084183,0.3499495402888426,1.0222777113105,1.612031070120583,0.5934672026333313,0.5941879407539996,1.132701021420726,1.007828949118801,0.3278162736900804,0.4334285687350399,0.8438608118018552,0.2792486522727815,0.1018156857031877,0.2930999375303145,0.3009090920963022,796.996336996337,797.8021978021978,791.7582417582418,815.5311355311355,582.2344322344322,-0.068848,0.053040,0.997986,-0.127106,-1.622467,-0.762634,352967.032967,96676703.296703,48396776.556777,112.592743,1,1,1,1,1,30.000000
2568-11-19 12:10:08.186,1.539394997915424,0.6128927980409788,0.6807672261352894,1.548439297565362,1.374899805768329,0.09054418690673453,0.04685804452709653,1.0222777113105,1.491581978803125,0.4215116596440882,0.5548971716102009,1.132701021420726,0.8428752769528267,0.3088552573967354,0.5015908481949882,0.8438608118018552,0.1850491695933119,-0.1199122019389093,0.2426744583812941,0.3009090920963022,793.3699633699634,793.7728937728938,780.4761904761905,1378.021978021978,962.1978021978023,-0.069275,0.054138,1.000549,0.067291,-1.809387,-0.560760,350549.450549,96554212.454212,48354065.934066,112.592743,1,1,1,1,1,30.000000
2568-11-19 12:10:08.342,,,,,,,,,,,,,,,,,,,,,,,,,,,,,,,,,,,,,,,,,,/muse/elements/blink
2568-11-19 12:10:08.641,,,,,,,,,,,,,,,,,,,,,,,,,,,,,,,,,,,,,,,,,,/muse/elements/blink
2568-11-19 12:10:09.184,1.794032771932449,0.6654321541784227,0.5840915513850063,1.548439297565362,1.631516927465688,0.1479499874016248,-0.1516449743863474,1.0222777113105,1.874478565837498,0.4818823564107548,0.5059552240662097,1.132701021420726,1.026983403388004,0.3168816927872224,0.48052898995605,0.8438608118018552,0.2178620907280988,-0.1318364415612265,0.02256081640090096,0.3009090920963022,825.2014652014652,787.7289377289378,788.9377289377289,934.3956043956044,865.8974358974359,-0.062256,0.058594,0.999023,0.508423,-2.751465,0.904694,350549.450549,96492161.172161,48322637.362637,112.592743,1,1,1,1,1,30.000000
2568-11-19 12:10:09.484,,,,,,,,,,,,,,,,,,,,,,,,,,,,,,,,,,,,,,,,,,/muse/elements/blink
2568-11-19 12:10:09.684,,,,,,,,,,,,,,,,,,,,,,,,,,,,,,,,,,,,,,,,,,/muse/elements/blink
2568-11-19 12:10:09.884,,,,,,,,,,,,,,,,,,,,,,,,,,,,,,,,,,,,,,,,,,/muse/elements/blink
2568-11-19 12:10:10.137,1.794032771932449,0.5222433522755818,0.4409932994585774,1.548439297565362,1.631516927465688,0.03615894498028777,0.3370992128587862,1.0222777113105,1.874478565837498,0.5010418698493724,0.4595317909314088,1.132701021420726,1.026983403388004,0.1660330722122474,0.2813578545227579,0.8438608118018552,0.2178620907280988,-0.130213093884118,0.3016534836655836,0.3009090920963022,715.6043956043957,813.5164835164835,794.981684981685,879.1941391941392,842.9304029304029,-0.067200,0.060852,1.002380,0.336456,-1.525269,0.426178,351355.311355,96227032.967033,48297655.677656,112.592743,1,2,1,1,2,30.000000
2568-11-19 12:10:11.032,,,,,,,,,,,,,,,,,,,,,,,,,,,,,,,,,,,,,,,,,,/muse/elements/blink
2568-11-19 12:10:11.178,1.794032771932449,0.4715815484152253,0.5375687184989932,1.548439297565362,1.631516927465688,0.2298689773177663,0.4068118585622748,1.0222777113105,1.874478565837498,0.3872816892017175,0.3823953660072839,1.132701021420726,1.026983403388004,0.09917321063957733,0.3233789040348569,0.8438608118018552,0.2178620907280988,-0.1675288392001601,0.1522554694474259,0.3009090920963022,771.2087912087912,786.9230769230769,789.7435897435897,1378.021978021978,882.8205128205128,-0.056580,0.066101,0.996826,-1.054230,-1.697235,3.297272,350549.450549,96205274.725275,48321025.641026,112.592743,1,2,1,1,2,25.000000
2568-11-19 12:10:12.144,,,,,,,,,,,,,,,,,,,,,,,,,,,,,,,,,,,,,,,,,,/muse/elements/blink
2568-11-19 12:10:12.146,1.601087056127333,0.6308113118441708,0.5892586733971242,1.548439297565362,1.552996736100986,0.5547354368317922,0.3610161644079592,1.0222777113105,1.602686311441737,0.1548806741225402,0.3082254130033444,1.132701021420726,1.154922494632666,0.2165702646060129,0.4162552240070051,0.8438608118018552,0.403110931180322,-0.1219608296600247,0.2474650207179505,0.3009090920963022,845.3479853479854,792.5641025641025,782.0879120879121,714.3956043956044,715.6043956043957,-0.063293,0.063171,0.995544,-0.261688,-1.330872,-0.022430,351355.311355,96397069.597070,48372600.732601,112.592743,1,1,1,1,1,25.000000
2568-11-19 12:10:12.330,,,,,,,,,,,,,,,,,,,,,,,,,,,,,,,,,,,,,,,,,,/muse/elements/blink
2568-11-19 12:10:13.169,1.768096871462668,0.5932708092421152,0.8839926003867836,1.548439297565362,2.066981988139224,0.3793758178904176,0.5038924405105693,1.0222777113105,2.044333865041573,0.3293518900149525,0.6493027584793697,1.132701021420726,1.252616588952336,0.2606434384183104,0.4803176360210444,0.8438608118018552,0.3816575420395881,-0.2281211739828189,0.3502597470269845,0.3009090920963022,748.6446886446887,805.8608058608058,775.2380952380953,369.0842490842491,560.8791208791209,-0.069214,0.066528,0.990417,0.254211,-1.846771,-0.613098,352161.172161,96270549.450549,48364542.124542,112.592743,1,1,1,1,1,25.000000
2568-11-19 12:10:13.455,,,,,,,,,,,,,,,,,,,,,,,,,,,,,,,,,,,,,,,,,,/muse/elements/blink
2568-11-19 12:10:13.635,,,,,,,,,,,,,,,,,,,,,,,,,,,,,,,,,,,,,,,,,,/muse/elements/blink
2568-11-19 12:10:14.161,1.78720943222788,0.4415923021464939,0.9364392913998353,1.548439297565362,2.078936172204907,0.415291922875573,0.876843231614889,1.0222777113105,2.044333865041573,0.7861810877374408,0.7068448705361007,1.132701021420726,1.258957332466253,0.06942958179266713,0.5813582542309073,0.8438608118018552,0.4322224629925023,-0.2225205955734082,0.2531027791893766,0.3009090920963022,944.0659340659341,790.952380952381,780.8791208791209,1029.084249084249,763.5531135531136,-0.070801,0.071411,0.990356,0.171967,-1.517792,-0.194397,352161.172161,96258461.538462,48399194.139194,112.592743,1,1,1,1,1,25.000000
2568-11-19 12:10:14.354,,,,,,,,,,,,,,,,,,,,,,,,,,,,,,,,,,,,,,,,,,/muse/elements/blink
2568-11-19 12:10:14.678,,,,,,,,,,,,,,,,,,,,,,,,,,,,,,,,,,,,,,,,,,/muse/elements/blink
2568-11-19 12:10:14.875,,,,,,,,,,,,,,,,,,,,,,,,,,,,,,,,,,,,,,,,,,/muse/elements/blink
2568-11-19 12:10:15.137,1.768763147660761,0.4105333701313168,1.225674878659447,1.366985615528075,2.043118665259348,0.2069632142610257,1.075091081385665,0.9164117773665538,2.029678018544361,0.7952046251049973,0.9025316262348014,1.038336247533681,1.235063101571233,0.1869630321387159,0.4612420074397994,0.7118615334538254,0.4549483944638084,-0.1874859518994003,0.03926799365036863,0.5758690402420759,789.7435897435897,803.040293040293,791.3553113553114,1194.688644688645,1128.205128205128,-0.069519,0.068787,1.000305,-0.314026,-1.457977,0.119629,351355.311355,96393040.293040,48431428.571429,112.592743,1,1,1,1,1,25.000000
2568-11-19 12:10:15.913,,,,,,,,,,,,,,,,,,,,,,,,,,,,,,,,,,,,,,,,,,/muse/elements/blink
2568-11-19 12:10:16.156,1.768763147660761,0.6462048086952508,1.030930793535631,1.341242265038793,2.043118665259348,0.4803970543051773,0.3775729763377608,1.095314563672909,2.029678018544361,0.8210620604045137,0.4357382145831563,1.247608411879348,1.235063101571233,0.2984073046871959,0.5053328121075236,0.8368721996538652,0.4549483944638084,-0.1131209425936417,0.1078372482112922,0.7030068216486564,819.96336996337,786.1172161172161,771.6117216117216,815.1282051282052,844.5421245421246,-0.068909,0.071167,0.992188,-1.271057,-1.293488,-1.555176,354578.754579,96358388.278388,48408864.468864,112.592743,1,1,1,1,1,25.000000
2568-11-19 12:10:17.182,1.768763147660761,0.6594034386300324,0.7554200427853101,1.432849753983003,2.043118665259348,0.4679201274560847,0.2265241483482574,1.416799779456961,2.029678018544361,0.7921627732951979,0.5623228047255071,1.187679480126585,1.235063101571233,0.3526332294117878,0.4491423836511282,0.8915038254230422,0.4549483944638084,-0.04329517388629241,0.2779865744488961,0.7375070036025707,950.1098901098901,796.1904761904763,781.6849816849817,798.6080586080586,750.6593406593407,-0.077759,0.078003,0.998474,0.777588,-1.398163,0.112152,353772.893773,96537289.377289,48431428.571429,112.592743,1,1,1,1,1,25.000000
2568-11-19 12:10:17.625,,,,,,,,,,,,,,,,,,,,,,,,,,,,,,,,,,,,,,,,,,/muse/elements/blink
2568-11-19 12:10:17.822,,,,,,,,,,,,,,,,,,,,,,,,,,,,,,,,,,,,,,,,,,/muse/elements/blink
2568-11-19 12:10:18.162,1.768763147660761,0.5013738594967971,0.1998681773142411,1.494905993668983,2.043118665259348,-0.05155231616171418,-0.03324516053614811,1.546914590930005,2.029678018544361,0.4519784268161002,0.5891448777504656,1.041020105566747,1.235063101571233,0.2832353492714298,0.6071925280755666,0.8356572703505054,0.4549483944638084,-0.08333140012094055,0.3503184504704427,0.7395382205700066,766.7765567765568,790.952380952381,786.9230769230769,931.5750915750916,687.3992673992674,-0.077026,0.067566,0.997925,-0.358887,-1.076660,-1.585083,355384.615385,96412380.952381,48385494.505495,112.592743,1,1,1,1,1,25.000000
2568-11-19 12:10:18.832,,,,,,,,,,,,,,,,,,,,,,,,,,,,,,,,,,,,,,,,,,/muse/elements/blink
2568-11-19 12:10:19.185,1.768763147660761,0.6595570460712602,0.3969689717530425,1.178405181889389,2.043118665259348,0.1778672413114607,0.388577397625042,1.119457364244475,2.029678018544361,0.557714871995498,0.5836629234247994,1.169195470905873,1.235063101571233,0.3483024486840748,0.5613736523099093,0.7880533681392713,0.4549483944638084,0.01362791823555721,0.2946319733206196,0.5315191961605825,707.1428571428571,802.2344322344322,786.9230769230769,824.3956043956044,635.0183150183151,-0.086121,0.071594,0.996582,0.052338,-1.241150,-0.186920,353772.893773,96164981.684982,48324249.084249,112.592743,1,1,1,1,1,25.000000
2568-11-19 12:10:20.055,,,,,,,,,,,,,,,,,,,,,,,,,,,,,,,,,,,,,,,,,,/muse/elements/blink
2568-11-19 12:10:20.150,1.768763147660761,0.781099147882521,0.5922233110291927,0.7941231506017671,2.043118665259348,0.1068236198693983,0.4327464372519786,0.4925385749710784,2.029678018544361,0.3137667996069107,0.4605125540170392,0.7606048928044508,1.235063101571233,0.2995475173062169,0.3727688298164044,0.6954107990284071,0.4549483944638084,0.02613697914892753,0.1152491949127585,0.3455149036287952,850.989010989011,803.040293040293,780.8791208791209,839.3040293040293,695.8608058608058,-0.078064,0.072083,0.998962,-0.807495,-1.345825,0.186920,355384.615385,96212527.472527,48261391.941392,112.592743,1,1,1,1,1,25.000000
2568-11-19 12:10:21.143,1.768763147660761,0.6182955386142229,0.6811928123353755,0.7576888633432656,2.043118665259348,0.2359175784058272,0.3161930485229199,0.5539597934388125,2.029678018544361,0.3514193737569173,0.3404906519294076,0.8322602233422954,1.235063101571233,0.2622775446193931,0.2973070523553527,0.7487374865069035,0.4549483944638084,-0.1138530046087184,-0.02878240272977867,0.415205966035315,773.2234432234433,801.4285714285714,782.893772893773,916.2637362637363,662.014652014652,-0.080322,0.067444,0.996338,-0.216827,-1.637421,-0.089722,353772.893773,96069084.249084,48213040.293040,112.592743,1,1,1,1,1,25.000000
2568-11-19 12:10:21.380,,,,,,,,,,,,,,,,,,,,,,,,,,,,,,,,,,,,,,,,,,/muse/elements/blink
2568-11-19 12:10:22.169,1.783551368142266,0.6237063781152955,0.8238319841080651,0.9314249125601251,2.021993156539184,0.03316763771063292,0.4114678282271311,0.4269776106422993,1.954913651870344,0.3672056877669026,0.3639247019998618,0.8040057480963938,1.02991578323271,0.2193120290775241,0.2252884465826711,0.6934625453736837,0.2576936805027185,-0.2127134882718895,0.04422472044004172,0.3662547515425675,716.4102564102565,794.981684981685,782.4908424908425,752.6739926739926,560.8791208791209,-0.088867,0.069824,0.996277,0.261688,-0.800018,-0.157013,353772.893773,96115018.315018,48250915.750916,112.592743,1,1,1,1,1,25.000000
2568-11-19 12:10:22.704,,,,,,,,,,,,,,,,,,,,,,,,,,,,,,,,,,,,,,,,,,/muse/elements/blink
2568-11-19 12:10:23.171,1.851698813609455,1.070920582450609,0.8347583238060639,1.194859773738134,1.898945758116963,0.1168201067256018,0.2314990309923097,0.4063463847852878,1.698767515658187,0.114480073445112,0.5142269795934684,0.7160584049570419,1.007578123936808,0.1913474977247,0.343106600479633,0.6053262761668117,0.2688351830139921,-0.2640498162258385,-0.02889378313124212,0.2419257324570248,857.8388278388279,802.6373626373627,778.4615384615385,886.8498168498169,577.8021978021978,-0.084290,0.064941,0.998840,0.201874,-1.517792,0.246735,354578.754579,96320512.820513,48290402.930403,112.592743,1,1,1,1,1,25.000000
2568-11-19 12:10:24.170,2.032215880342894,0.8172056656271798,0.7669749900051962,0.9971177142751529,2.067518968571509,0.1188763693595767,0.2101173871629762,0.5419911475646108,1.159014425157971,0.2615580492224387,0.6120521094551523,0.7926032556174122,1.288272280333086,0.1741000184224001,0.4116668129758973,0.6244348204718833,0.1510745927790504,-0.2893117882685671,-0.1124162086415066,0.3750395639139455,740.989010989011,799.4139194139194,773.6263736263736,864.6886446886447,722.4542124542124,-0.075073,0.064758,1.001587,-0.082245,-1.562653,-0.097198,352161.172161,95884542.124542,48209816.849817,112.592743,1,1,1,1,1,25.000000
2568-11-19 12:10:25.100,,,,,,,,,,,,,,,,,,,,,,,,,,,,,,,,,,,,,,,,,,/muse/elements/blink
2568-11-19 12:10:25.150,1.855077106259625,0.6352253083749936,0.6741533082716037,0.6236796314543916,1.65498887753249,-0.1462738018872942,0.05254159277235571,0.6528247885785914,1.403949290579475,0.464271420994136,0.6937326956749832,0.7867663258098531,0.774320702566174,0.3121337336623111,0.4316246832608183,0.6376771969464181,-0.243861493976153,-0.1112735618101754,-0.1410621497311044,0.3690710064110903,927.5457875457876,795.3846153846154,784.1025641025641,747.032967032967,762.7472527472528,-0.077148,0.068848,0.999084,0.082245,-2.377625,0.171967,352967.032967,95817655.677656,48212234.432234,112.592743,1,1,1,1,1,25.000000
2568-11-19 12:10:26.145,1.946773707086221,0.5727600964464215,0.6793527301002403,1.098780248556503,1.862808548800352,0.5036769342204175,-0.04682663891493143,0.7342630411398096,1.800760506075441,1.118821510629455,0.6381198017915796,0.8788521728853325,1.120056722379186,0.2605840504732782,0.43574442126816,0.7337144608698771,0.1057472291520157,-0.1787204377305915,-0.05334127571468772,0.2644058274429355,778.4615384615385,798.2051282051282,781.6849816849817,885.6410256410256,543.1501831501831,-0.082947,0.068909,1.000977,-0.493469,-1.734619,0.336456,353772.893773,95907106.227106,48214652.014652,112.592743,1,1,1,1,1,25.000000
2568-11-19 12:10:26.504,,,,,,,,,,,,,,,,,,,,,,,,,,,,,,,,,,,,,,,,,,/muse/elements/blink
2568-11-19 12:10:27.160,1.990317132547624,0.6805619832144661,0.7866288325706658,0.9835887161349958,1.9194737138199,0.6060263939880436,0.3466519277608525,0.5361024569913987,1.800760506075441,1.070831950737616,0.7531394828235562,1.039733593824878,1.197089739580605,0.2877913928984547,0.4365221061994735,0.6875759662021333,0.1559249513487257,-0.1905792690695178,0.08480543902238369,0.3804892449961488,751.4652014652015,811.0989010989011,799.0109890109891,856.2271062271062,709.1575091575091,-0.080261,0.060791,1.001892,-0.433655,-1.622467,-0.732727,352967.032967,95837802.197802,48229963.369963,112.592743,1,1,1,1,1,25.000000
2568-11-19 12:10:27.546,,,,,,,,,,,,,,,,,,,,,,,,,,,,,,,,,,,,,,,,,,/muse/elements/blink
2568-11-19 12:10:28.159,1.706098495260261,0.7610382999370573,0.7867688476812571,0.7946755506658797,1.942443952078614,0.2649900587280026,0.2823157802103029,0.7022353254768745,1.559539478433508,0.5682967481689244,0.7531394828235562,0.9732501154766335,1.003846135389655,0.2082370920576907,0.3307389696581683,0.6284114378564581,0.1754801865561328,-0.1637838605471517,0.150120257999029,0.4476616237495818,766.3736263736264,810.6959706959707,799.4139194139194,698.6813186813187,536.7032967032967,-0.082703,0.065735,1.000183,0.284119,-1.869202,-0.164490,354578.754579,95842637.362637,48254945.054945,112.592743,1,1,1,1,1,25.000000
2568-11-19 12:10:28.979,,,,,,,,,,,,,,,,,,,,,,,,,,,,,,,,,,,,,,,,,,/muse/elements/blink
2568-11-19 12:10:29.141,1.60082029417251,0.38625927047557,0.5533086965429929,0.8310615661558028,1.988875870719826,0.1780000080836675,0.4230023408593042,0.6372044061408573,1.765671510528039,0.3481123212931491,0.4858771548646545,0.738095309868812,0.9821611231700448,0.124182342841198,0.3918684368834861,0.5761166883152242,0.1082069573977952,-0.2249257809197018,-0.01696560820672289,0.4811497955562952,828.4249084249085,796.5934065934066,807.4725274725275,914.2490842490843,662.4175824175825,-0.072632,0.064758,0.992554,-0.119629,-1.629944,-0.142059,353772.893773,95987692.307692,48269450.549451,112.592743,1,1,1,1,1,25.000000
2568-11-19 12:10:30.079,,,,,,,,,,,,,,,,,,,,,,,,,,,,,,,,,,,,,,,,,,/muse/elements/blink
2568-11-19 12:10:30.174,1.550835730781034,0.5304045960199366,0.6663596719949705,0.6280308124888053,1.945513089106851,0.261748290067839,0.5677519901725449,0.4135826207517057,1.855162382203412,0.2509446737449706,0.7418802571544967,0.7585855920544305,1.032707009857516,0.2338871834184628,0.5658283302648298,0.5567485127155919,0.07115109758071458,-0.2791771560763253,0.1058187838951986,0.31420385283985,699.0842490842491,787.3260073260074,803.4432234432235,734.1391941391942,576.996336996337,-0.073303,0.067200,0.996216,-0.142059,-1.457977,-0.478516,352967.032967,95756410.256410,48225128.205128,112.592743,1,1,1,1,1,25.000000
2568-11-19 12:10:31.185,1.550835730781034,0.6351985433121656,0.9623028434265712,0.08352706976212783,1.945513089106851,0.09155496954443919,0.3787159779179318,0.3582057888712563,1.855162382203412,-0.173586862133028,0.7871062422151175,0.4870972313670729,1.032707009857516,0.3053026394752322,0.4416262459349955,0.6222718971045273,0.07115109758071458,-0.3909005459362949,0.1746783973445896,0.2583026614045937,705.5311355311355,781.6849816849817,788.5347985347986,680.1465201465202,637.8388278388279,-0.071533,0.068665,0.997009,0.179443,-1.241150,0.261688,353772.893773,95757216.117216,48233992.673993,112.592743,1,1,1,1,1,25.000000
2568-11-19 12:10:31.401,,,,,,,,,,,,,,,,,,,,,,,,,,,,,,,,,,,,,,,,,,/muse/elements/blink
2568-11-19 12:10:31.613,,,,,,,,,,,,,,,,,,,,,,,,,,,,,,,,,,,,,,,,,,/muse/elements/blink
2568-11-19 12:10:32.179,1.550835730781034,0.8683298876042898,0.8802204143986597,0.9018053468034407,1.945513089106851,0.4887408012993646,0.459859033485557,0.8342553040767845,1.855162382203412,0.7614675617771123,0.5812088609694196,0.9371069052617574,1.032707009857516,0.3337249352561779,0.4756820996174766,0.5919247116548237,0.07115109758071458,0.1737723624151487,0.1355147963272297,0.417048184513758,787.3260073260074,799.0109890109891,788.1318681318681,909.8168498168499,767.985347985348,-0.064270,0.074951,0.993774,0.291595,-1.480408,0.142059,353772.893773,96003003.663004,48289597.069597,112.592743,1,1,1,1,1,25.000000
2568-11-19 12:10:32.840,,,,,,,,,,,,,,,,,,,,,,,,,,,,,,,,,,,,,,,,,,/muse/elements/blink
2568-11-19 12:10:33.140,1.550835730781034,0.8099305057751157,0.7153086381730702,0.971947757520099,1.945513089106851,0.6043852088739349,0.233183302135571,0.6208027506316599,1.855162382203412,1.078917905331088,0.6236283950119177,0.9555467631689827,1.032707009857516,0.7728658168340323,0.5073372337737725,0.7695200932582059,0.07115109758071458,0.5176684069104386,-0.01062817720557157,0.4449851871292084,713.5897435897436,796.996336996337,789.7435897435897,788.9377289377289,589.4871794871796,-0.066895,0.066895,0.996155,-0.112152,-1.659851,-0.082245,352967.032967,95625860.805861,48185641.025641,112.592743,1,1,1,1,1,25.000000
2568-11-19 12:10:34.069,,,,,,,,,,,,,,,,,,,,,,,,,,,,,,,,,,,,,,,,,,/muse/elements/blink
2568-11-19 12:10:34.165,1.550835730781034,0.7280760115534096,0.7653329155482836,0.8040314429125046,1.945513089106851,0.5254485002525897,0.3366710807619064,0.7501231578877197,1.855162382203412,0.9440263359114675,0.6127899987057235,0.6651991329061517,1.032707009857516,0.6191102188663268,0.4474832069020607,0.7785521130986933,0.07115109758071458,0.269030962993952,-0.1495229259266889,0.4956686620179991,751.0622710622711,797.8021978021978,790.5494505494506,659.5970695970697,516.5567765567765,-0.070129,0.078857,0.999878,0.157013,-1.988831,0.029907,354578.754579,95589597.069597,48246886.446886,112.592743,1,1,1,1,1,25.000000
2568-11-19 12:10:35.148,1.092059422380006,0.5298177226196803,0.5722740605460679,0.9495063265619009,1.182011284240027,0.3369683173322287,0.5833628384975448,0.691669872279346,1.394887286595617,0.3903287485919303,0.3772042356746928,0.7159438546736375,0.6847677292778336,0.2045258350186952,0.3689439743647233,0.6908740295305321,0.117609618732178,-0.03861373431689873,-0.2579921195853064,0.4786184371434849,765.9706959706959,786.5201465201466,778.8644688644689,994.4322344322345,732.9304029304029,-0.068542,0.080750,0.997070,-0.448608,-1.719666,-0.089722,354578.754579,95745128.205128,48273479.853480,112.592743,1,1,1,1,1,25.000000
2568-11-19 12:10:35.301,,,,,,,,,,,,,,,,,,,,,,,,,,,,,,,,,,,,,,,,,,/muse/elements/blink
2568-11-19 12:10:36.142,1.614907374395131,0.6104266164174474,0.6213388576233231,0.9306966230548267,1.39269552615782,0.01091081131815854,0.3039225592372251,0.6420635173348297,1.626294053036569,0.420998193142011,0.496350018133692,0.7831109130916737,0.8685635611124284,0.2643546703218725,0.1408010410850187,0.7712620912474101,0.2437073344042112,-0.09385356833569253,-0.3848203465839894,0.4731375763210539,706.3369963369963,795.7875457875458,791.3553113553114,807.8754578754579,736.959706959707,-0.071228,0.074341,1.000732,-0.351410,-1.368256,-0.912170,353772.893773,95635531.135531,48263809.523810,112.592743,1,1,1,1,1,25.000000
2568-11-19 12:10:36.622,,,,,,,,,,,,,,,,,,,,,,,,,,,,,,,,,,,,,,,,,,/muse/elements/blink
2568-11-19 12:10:37.185,1.683461331906462,0.8216450027429107,0.9098950914735389,1.102316699607501,1.583853627055449,0.2481255427230312,0.1866205049848413,0.7161829165161621,1.812431468501459,0.5950317924219959,0.5832573895743082,0.8163659615260676,1.16332859337881,0.1228217798169516,0.1051821197111666,0.8674036740413587,0.2549041501113341,-0.1966912131373141,-0.1936078207547147,0.5084632385497724,774.0293040293041,811.9047619047619,796.5934065934066,540.7326007326008,636.2271062271062,-0.076904,0.077820,0.997253,0.134583,-1.712189,-0.590668,355384.615385,95718534.798535,48336336.996337,112.592743,1,1,1,1,1,25.000000
2568-11-19 12:10:37.813,,,,,,,,,,,,,,,,,,,,,,,,,,,,,,,,,,,,,,,,,,/muse/elements/blink
2568-11-19 12:10:38.156,1.739096568405391,0.9582153266167897,0.6722858083821718,1.279260260373886,1.715952523316796,0.3806663484109856,0.02416878219654082,0.7734693836724693,1.75130281105043,0.4825379921860789,0.4941797417663463,0.7335571845736939,1.129386477503489,0.3053371967027324,0.2503418894953052,0.8583418494864307,0.358921362524475,0.02584604377393776,-0.1602500929388127,0.5489290621603539,811.9047619047619,809.0842490842491,792.967032967033,1091.941391941392,1114.908424908425,-0.069885,0.080200,0.994507,0.014954,-2.302856,0.478516,354578.754579,95801538.461538,48373406.593407,112.592743,1,1,1,1,1,25.000000
2568-11-19 12:10:39.108,,,,,,,,,,,,,,,,,,,,,,,,,,,,,,,,,,,,,,,,,,/muse/elements/blink
2568-11-19 12:10:39.167,1.416028616970644,0.8693803405146568,0.7038765016863283,1.279260260373886,1.355128945275767,0.3446986958012461,0.4282391906656433,0.7734693836724693,1.656208272529133,0.5364695616932351,0.593896239910876,0.7335571845736939,0.9055750280251167,0.3373038307109331,0.202274047732721,0.8583418494864307,0.2921141276703397,0.02995810218136175,-0.1430435822139273,0.5489290621603539,697.4725274725275,805.0549450549451,795.3846153846154,788.1318681318681,843.7362637362637,-0.075439,0.078369,1.001343,-0.037384,-1.375732,0.157013,353772.893773,95386520.146520,48286373.626374,112.592743,1,1,1,1,1,25.000000
2568-11-19 12:10:40.161,0.8781611200186563,0.5199549221440098,0.3777865050022594,0.7938060372541798,0.9390059268620062,0.4662574242347667,0.6357181461479886,0.8055727627834692,1.058076748214111,0.5412864976370416,0.5312630897740713,0.6565453235475111,0.9686320067822243,0.3732679729455197,0.1470017721813595,0.9401782346796591,0.2796563402159428,-0.03992468855375646,-0.1809038394393507,0.4550783511875848,851.3919413919414,798.2051282051282,794.981684981685,884.8351648351648,647.1062271062272,-0.066772,0.081238,0.997375,-0.142059,-1.682281,-0.082245,353772.893773,95353479.853480,48252527.472527,112.592743,1,1,1,1,1,25.000000
2568-11-19 12:10:40.433,,,,,,,,,,,,,,,,,,,,,,,,,,,,,,,,,,,,,,,,,,/muse/elements/blink
2568-11-19 12:10:41.150,0.9702103498969141,0.1814420528991376,0.4181362728200613,0.73147986315467,1.072640403963785,0.4187117470306733,0.2211446279552934,0.312685179165508,1.390923563901252,0.5754158223748091,0.2803419622254258,0.5161226339432808,1.247312493132809,0.5775547637377505,0.2590723241711758,0.8918116481414438,0.440532468240943,0.4072584400126145,-0.09279695499321151,0.6018637645855359,780.0732600732601,792.967032967033,782.893772893773,1031.098901098901,965.4212454212454,-0.074097,0.077698,0.995483,-0.448608,-1.428070,0.142059,354578.754579,95589597.069597,48337142.857143,112.592743,1,1,1,1,1,25.000000
2568-11-19 12:10:41.753,,,,,,,,,,,,,,,,,,,,,,,,,,,,,,,,,,,,,,,,,,/muse/elements/blink
2568-11-19 12:10:42.182,1.29074220301519,0.3959046792959023,0.64106737685466,0.7339358405308142,1.52781914649606,0.4650214670429093,0.4972917102510959,0.4278067643542435,1.700755303329712,0.7368230211492792,0.7815846641863412,0.7960881422951498,1.110594233473494,0.2045425874908376,0.1956438990375367,0.6377779219859997,0.2832285969795273,-0.004205073432682822,-0.1465717910207479,0.4702622194408904,697.0695970695971,789.7435897435897,788.5347985347986,777.2527472527473,735.7509157509157,-0.065674,0.078430,0.998291,0.029907,-1.600037,-0.366364,354578.754579,95463882.783883,48297655.677656,112.592743,1,1,1,1,1,25.000000
2568-11-19 12:10:43.060,,,,,,,,,,,,,,,,,,,,,,,,,,,,,,,,,,,,,,,,,,/muse/elements/blink
2568-11-19 12:10:43.175,1.29074220301519,0.9925705054259362,0.8441324077418132,1.01632514555798,1.52781914649606,0.4926150736684429,0.4835596029803788,0.5636865118559553,1.700755303329712,0.729047300940478,0.7815846641863412,0.8269227753874412,1.110594233473494,0.1245954877986594,0.2118035978047744,0.7162953165143509,0.2832285969795273,-0.1957888552446325,-0.1135711415005786,0.4975046283728962,835.6776556776557,787.3260073260074,786.9230769230769,884.8351648351648,682.967032967033,-0.069214,0.077576,0.995056,-0.381317,-2.213135,-0.067291,354578.754579,95555750.915751,48346007.326007,112.592743,1,1,1,1,1,25.000000
2568-11-19 12:10:44.168,1.29074220301519,0.9301262192342905,0.6582052302411444,1.254961159076033,1.52781914649606,0.4700773002360912,0.2400960721337209,0.4857223519639957,1.700755303329712,0.3989331143709034,0.2950148689512337,0.6876910302950763,1.110594233473494,0.204828174686939,0.2407449164189911,0.7603857603018442,0.2832285969795273,-0.09872433911986613,-0.1681383822498421,0.5556941386475783,759.5238095238095,798.2051282051282,787.3260073260074,949.7069597069598,787.3260073260074,-0.072815,0.073059,0.995789,-0.164490,-1.652374,-0.463562,354578.754579,95401831.501832,48300879.120879,112.592743,1,1,1,1,1,25.000000
2568-11-19 12:10:44.400,,,,,,,,,,,,,,,,,,,,,,,,,,,,,,,,,,,,,,,,,,/muse/elements/blink
2568-11-19 12:10:45.159,1.29074220301519,0.6847938231661044,0.7155867478542117,1.041883007156124,1.52781914649606,0.4623508826639928,0.04189002181151328,0.4437152091974798,1.700755303329712,0.2952295907576563,0.6187103111211293,0.8122129439817852,1.110594233473494,0.2999445131895911,0.2019938576781118,0.7620802072026848,0.2832285969795273,-0.09881658625771327,-0.2794856484881817,0.4379043494356503,715.2014652014652,802.6373626373627,787.3260073260074,768.3882783882784,610.4395604395604,-0.066467,0.079956,1.001953,0.934601,-2.377625,1.353302,354578.754579,95197142.857143,48256556.776557,112.592743,1,1,1,1,1,25.000000
2568-11-19 12:10:45.682,,,,,,,,,,,,,,,,,,,,,,,,,,,,,,,,,,,,,,,,,,/muse/elements/blink
2568-11-19 12:10:46.073,,,,,,,,,,,,,,,,,,,,,,,,,,,,,,,,,,,,,,,,,,/muse/elements/blink
2568-11-19 12:10:46.178,1.29074220301519,0.4794655715846308,0.4712002201978501,0.6796483424760462,1.52781914649606,0.1885316002731766,-0.118713301180022,0.4206519718549245,1.700755303329712,0.4437002485510511,0.6569890563930211,1.012750002875532,1.110594233473494,0.2631167301888113,0.1985673934385674,0.7181265161046173,0.2832285969795273,-0.131558067258254,-0.2865257684272859,0.4110845324659395,775.2380952380953,803.040293040293,799.4139194139194,637.4358974358975,375.9340659340659,-0.061584,0.080688,0.998596,-0.112152,-1.839294,-0.373840,354578.754579,95195531.135531,48268644.688645,112.592743,1,1,1,1,1,25.000000
2568-11-19 12:10:46.966,,,,,,,,,,,,,,,,,,,,,,,,,,,,,,,,,,,,,,,,,,/muse/elements/blink
2568-11-19 12:10:47.180,1.470649529676149,0.5138835985401012,0.319157252984558,0.7688406888949835,1.460832615049547,0.1829061578323397,0.1130343758101666,0.1830987848504415,1.749558976690449,0.3950858301708627,0.5889539551861263,0.878662312976508,0.8470612464441106,0.1770686911856938,0.3052090899916033,0.5808918389865578,0.1279744917387666,-0.07547636751010262,-0.2488578702165188,0.5043045200420682,770.4029304029305,805.8608058608058,788.1318681318681,932.7838827838829,1252.307692307692,-0.055847,0.078369,1.001770,0.119629,-1.921539,0.194397,352967.032967,95395384.615385,48340366.300366,112.592743,1,1,1,1,1,25.000000
2568-11-19 12:10:48.185,1.254503129197358,0.583682542724454,0.452294655673798,0.9495919422901538,1.019799118264448,0.3793425867655763,0.3125732266128281,0.2864083764136122,1.441247427213897,0.2913858846120759,0.609559395849836,0.8845016525883743,0.7316599953434125,0.2418956851580635,0.1979666417202153,0.6574540180191277,0.07735967128258585,-0.1189846940431493,-0.1420066177516009,0.4825641578935344,719.2307692307693,794.981684981685,787.3260073260074,748.6446886446887,628.974358974359,-0.055969,0.069153,0.999023,-0.171967,0.216827,0.022430,352967.032967,95198754.578755,48332307.692308,112.592743,1,1,1,1,1,25.000000
2568-11-19 12:10:48.299,,,,,,,,,,,,,,,,,,,,,,,,,,,,,,,,,,,,,,,,,,/muse/elements/blink
2568-11-19 12:10:49.151,1.050804735285801,0.6369370009798691,0.5366625625327702,0.6739294624266207,0.8750573591768084,0.3280528523898156,0.4593457497324839,0.424572656422216,1.017733783369862,0.5881357540885763,0.4141178236877701,0.6566565834228671,0.9478988007733866,0.2010634781208673,0.07726185098879093,0.8445570371431143,0.2768863106445091,-0.1235650261715456,-0.06598475431849662,0.4046703123170028,885.6410256410256,809.4871794871796,799.0109890109891,857.032967032967,552.4175824175825,-0.058594,0.071655,1.002991,-0.127106,-2.138367,0.134583,353772.893773,95436483.516484,48415311.355311,112.592743,1,1,1,1,1,25.000000
2568-11-19 12:10:49.514,,,,,,,,,,,,,,,,,,,,,,,,,,,,,,,,,,,,,,,,,,/muse/elements/blink
2568-11-19 12:10:49.774,,,,,,,,,,,,,,,,,,,,,,,,,,,,,,,,,,,,,,,,,,/muse/elements/blink
2568-11-19 12:10:50.150,1.05735281677458,0.5930234486099176,0.6427234909378226,0.6756534515424217,0.8317472356420345,0.2496511347776035,0.3458356444529544,0.4208366563707746,0.9875887723415077,0.5649581014404411,0.4279784725467607,0.6302863278278787,0.9218195546273407,0.1139122967831723,0.2345635193779777,0.8468043370647342,0.3022818251997482,-0.08935653524028861,0.05553463949443541,0.3907317079980678,755.8974358974359,792.967032967033,787.3260073260074,905.3846153846154,649.92673992674,-0.050537,0.068359,0.997620,-0.157013,-1.794434,-1.263580,354578.754579,95236630.036630,48321025.641026,112.592743,1,1,1,1,1,25.000000
2568-11-19 12:10:50.927,,,,,,,,,,,,,,,,,,,,,,,,,,,,,,,,,,,,,,,,,,/muse/elements/blink
2568-11-19 12:10:51.182,1.405885854478667,0.601285543598681,0.7796757905076943,0.9349178931813913,1.424677112649255,0.3683398383452133,0.4748081907495914,0.8726244449859297,1.162008236699443,0.3104159722015575,0.324397251054042,0.9285929100299325,0.8876076451163634,0.1534307895370337,0.280605509384242,0.685344736357927,0.187176419775511,-0.1319436758028794,-0.1506861458803365,0.4804447403314411,704.3223443223443,805.4578754578755,791.3553113553114,763.5531135531136,1269.230769230769,-0.053040,0.069885,1.000122,0.441132,-1.315918,0.134583,354578.754579,95006153.846154,48318608.058608,112.592743,1,1,1,1,1,25.000000
2568-11-19 12:10:52.099,,,,,,,,,,,,,,,,,,,,,,,,,,,,,,,,,,,,,,,,,,/muse/elements/blink
2568-11-19 12:10:52.148,1.318050650368635,0.8839248055967842,0.8407022911053469,1.077981452753063,1.277274984614093,0.5395703556652522,0.1992112162382774,0.8840306468517375,1.668627029863085,0.3401563845953679,0.1853611115276919,0.8981798036103553,0.7608758834882347,0.1854573281317773,0.2044535095521253,0.6992787347057051,0.07867491517504532,-0.1570754489848986,-0.0425389298494051,0.3623241325562681,884.0293040293041,805.4578754578755,789.7435897435897,911.4285714285714,585.0549450549451,-0.050049,0.071899,0.997070,0.044861,-1.727142,-0.142059,356190.476190,95195531.135531,48333113.553114,112.592743,1,1,1,1,1,25.000000
2568-11-19 12:10:52.449,,,,,,,,,,,,,,,,,,,,,,,,,,,,,,,,,,,,,,,,,,/muse/elements/blink
2568-11-19 12:10:53.171,1.651638816208845,0.7705396299925338,0.4330604006037638,1.002904220364323,1.563846074129525,0.4505053310452967,0.09298690618050086,0.6971516139293107,2.112649708433095,0.5993450478027496,0.2470310249257495,0.9369890753753681,0.8228841727074454,0.2909753375024692,0.1263327145289651,0.6645024057513201,0.01896914610103574,-0.04626621418833927,-0.06576602759435457,0.4166844997481741,861.4652014652015,792.967032967033,805.0549450549451,804.6520146520147,708.3516483516484,-0.050720,0.073547,0.997803,-0.157013,-1.271057,-0.074768,354578.754579,95367985.347985,48387106.227106,112.592743,1,1,1,1,1,25.000000
2568-11-19 12:10:53.443,,,,,,,,,,,,,,,,,,,,,,,,,,,,,,,,,,,,,,,,,,/muse/elements/blink
2568-11-19 12:10:54.162,1.831870274970982,0.6882221275559816,0.5209554175443188,0.9426286186320025,1.629718163033199,0.2387427227332082,0.2193059843863363,0.4015641607007345,2.059725611558,0.6017870077677721,0.2371354287169519,0.6498712714453438,0.8267967101907907,0.2706600179075014,0.05715161954166873,0.7692159493912429,0.2634953644333187,-0.03331397185703563,-0.1644984015916677,0.3992030730130365,830.0366300366301,802.6373626373627,807.0695970695971,695.8608058608058,840.9157509157509,-0.054749,0.073425,1.003845,0.067291,-1.540222,0.590668,353772.893773,95226153.846154,48353260.073260,112.592743,1,1,1,1,1,25.000000
2568-11-19 12:10:54.763,,,,,,,,,,,,,,,,,,,,,,,,,,,,,,,,,,,,,,,,,,/muse/elements/blink
2568-11-19 12:10:55.167,1.509305029851,0.5757009335000475,0.6207322565005027,1.17272331503999,1.517413314527993,0.07882426456519914,0.2563234140966984,0.4841676648191897,1.552105422547648,0.3698348729596728,0.2547532054582214,0.6290456639757831,0.8334576180443847,0.1508088491019676,0.08446259255233489,0.6589769403501905,0.2010932215998986,-0.1608997194365568,-0.1597884289986411,0.4405175572298589,828.021978021978,800.6227106227107,788.5347985347986,937.6190476190476,567.3260073260074,-0.052246,0.077881,0.997620,-0.239258,-2.175751,-0.231781,354578.754579,95438901.098901,48384688.644689,112.592743,1,1,1,1,1,25.000000
2568-11-19 12:10:55.982,,,,,,,,,,,,,,,,,,,,,,,,,,,,,,,,,,,,,,,,,,/muse/elements/blink
2568-11-19 12:10:56.176,1.356346002715068,0.3708928824410781,0.352666676775447,1.190552312017693,1.032827655787821,0.2227874502823495,0.1027863938254761,0.6877739149189185,1.434438514899978,0.3400426661325051,0.3375677909360805,0.5257223396117241,0.6371306019999046,0.115514520945122,0.1724130223426276,0.5620460946712794,0.1077210367761381,-0.1047968786724545,-0.178094078437825,0.5026287440075698,775.2380952380953,812.7106227106227,788.1318681318681,979.92673992674,979.1208791208792,-0.048218,0.072327,0.995605,-0.605621,-1.951447,-1.136475,353772.893773,95104468.864469,48285567.765568,112.592743,1,1,1,1,1,25.000000
2568-11-19 12:10:56.280,,,,,,,,,,,,,,,,,,,,,,,,,,,,,,,,,,,,,,,,,,/muse/elements/blink
2568-11-19 12:10:57.076,,,,,,,,,,,,,,,,,,,,,,,,,,,,,,,,,,,,,,,,,,/muse/elements/blink
2568-11-19 12:10:57.177,1.374469594786355,0.2100842280172474,0.3473762809008121,0.8515597848829929,1.312078061664632,0.2485834613494979,0.1361014585076323,0.6500426458773554,1.625703196717733,0.4180687959820649,0.7175988201255734,0.9501227583518901,0.9236058875485623,0.1588987829125596,0.2439817048125848,0.7210846112115877,0.2953861952039274,-0.01234296603983529,-0.3248731463710933,0.6668328235858707,828.8278388278388,796.1904761904763,784.1025641025641,946.0805860805862,616.4835164835165,-0.043762,0.076050,0.995422,0.119629,-1.958923,0.186920,353772.893773,94854652.014652,48215457.875458,112.592743,1,1,1,1,1,25.000000
2568-11-19 12:10:57.856,,,,,,,,,,,,,,,,,,,,,,,,,,,,,,,,,,,,,,,,,,/muse/elements/blink
2568-11-19 12:10:58.178,0.9614286074721298,0.2330325714370873,0.4555699438209046,0.7351928408225418,1.282278112788734,0.2277899182531204,0.06025732028086478,0.6651296847920448,1.587552258874552,0.5173138000911363,0.7443973892698935,0.9435803842373922,0.9614633661174447,0.07991480949029307,0.1296159593805525,0.6321614408948626,0.550924709773934,-0.04829120556288478,-0.2694176497886204,0.6591859219475718,783.6996336996338,800.6227106227107,795.3846153846154,1033.516483516484,1650,-0.041199,0.075073,0.999939,0.261688,-1.697235,0.478516,352967.032967,94904615.384615,48205787.545788,112.592743,1,1,1,1,1,25.000000
2568-11-19 12:10:59.178,1.831585038975908,0.632025630491823,0.7739845406810071,0.7351928408225418,1.090924760373332,0.349207114254867,0.05617836596872026,0.6651296847920448,1.763987137152246,0.5980499561050792,0.3407402963593829,0.9435803842373922,0.8156841753879642,0.203395612880404,0.04733520436663051,0.6321614408948626,0.02701508082730428,-0.1514137786740067,-0.2459226106375378,0.6591859219475718,830.4395604395604,797.8021978021978,777.6556776556777,649.5238095238095,599.1575091575091,-0.042236,0.081665,0.999573,0.059814,-1.981354,0.433655,353772.893773,95046446.886447,48244468.864469,112.592743,1,1,1,1,1,25.000000
2568-11-19 12:10:59.252,,,,,,,,,,,,,,,,,,,,,,,,,,,,,,,,,,,,,,,,,,/muse/elements/blink
2568-11-19 12:11:00.150,1.478808582458965,0.7443450109078487,0.8013981180433914,0.6230887682987689,0.941178696318397,0.4086307297478829,0.2030956240915242,0.9718627615487598,1.0431158587388,0.6644288238701651,0.4486740789498369,0.8939111567260326,0.6887959061842304,0.3404497111312421,0.2991035325843421,0.7358956687163215,0.008261654107154626,-0.08143143921070931,-0.08506802919173473,0.4101800762755997,849.3772893772895,806.6666666666667,799.0109890109891,956.959706959707,630.989010989011,-0.046082,0.077271,1.004578,0.456085,-1.196289,0.127106,354578.754579,94812747.252747,48217875.457875,112.592743,1,1,1,1,1,25.000000
2568-11-19 12:11:00.470,,,,,,,,,,,,,,,,,,,,,,,,,,,,,,,,,,,,,,,,,,/muse/elements/blink
2568-11-19 12:11:01.144,0.9510934473932121,0.3880972828319094,0.6158693580748695,1.290161150114987,0.9340268468121221,0.3931749475743681,0.2634580402155812,1.050433812138505,0.693406407453462,0.5330847968514633,0.5136121933798686,1.060973397135772,0.4738749777372381,0.284203083548739,0.3365779293376439,0.6475749006118687,-0.08650707027838221,-0.1126445576068432,-0.04514115097091521,0.4313043871671481,741.3919413919414,797.8021978021978,799.4139194139194,899.7435897435897,1310.32967032967,-0.045959,0.073059,1.002380,0.246735,-1.398163,-0.269165,352967.032967,94795018.315018,48223516.483516,112.592743,1,1,1,1,1,25.000000
2568-11-19 12:11:01.710,,,,,,,,,,,,,,,,,,,,,,,,,,,,,,,,,,,,,,,,,,/muse/elements/blink
2568-11-19 12:11:02.159,0.8326762174491457,0.3449604686623645,0.4263987817296471,1.134499261378147,0.97377583168236,0.2115204322109592,0.1740680506761664,0.8700552549434124,1.646675075051118,0.2527070749846063,0.3875421222849834,0.8882785827183181,0.8782167891062258,0.267431813527145,0.2337317609040236,0.7409184264557731,0.02139101089327761,0.1435565023003925,-0.07908321339759732,0.6220296596940327,848.1684981684982,809.0842490842491,792.1611721611722,774.4322344322345,539.92673992674,-0.039246,0.081909,0.999329,-0.179443,-1.472931,0.261688,353772.893773,94844981.684982,48235604.395604,112.592743,1,1,1,1,1,25.000000
2568-11-19 12:11:03.001,,,,,,,,,,,,,,,,,,,,,,,,,,,,,,,,,,,,,,,,,,/muse/elements/blink
2568-11-19 12:11:03.158,1.419003257122757,0.6552806893976787,0.4722553017527781,0.7890387477089736,1.30462219989264,0.4485870123202639,0.4128194870272334,0.5728725108809865,1.797750441253657,0.2026682093789498,0.1900740405826887,0.6919902358616747,1.024587470491892,0.2312614257813052,0.2367385813004833,0.8216077811470457,0.1765284997669842,0.1272060572113452,-0.108027419028355,0.5666834945207965,804.2490842490843,787.3260073260074,780.8791208791209,942.8571428571429,510.1098901098901,-0.040588,0.072632,1.001404,0.014954,-1.555176,-0.164490,353772.893773,94826446.886447,48222710.622711,112.592743,1,1,1,1,1,25.000000
2568-11-19 12:11:04.158,1.770260541377575,0.7955352471162629,0.5597993672128695,0.7572371106067916,1.683875288427402,0.431009093411332,0.5788094270764751,1.058170330560055,1.54320049138164,0.3161612561156018,0.7664707409129641,0.7467569142745222,1.110856438486004,0.1448372989574386,0.2238455226604145,0.7447719275014325,0.3124126016590241,-0.05845874481211088,-0.04306070128681252,0.4627608187634011,765.1648351648352,802.2344322344322,790.952380952381,610.0366300366301,486.3369963369964,-0.039001,0.068726,0.998779,0.269165,-1.517792,-0.014954,352967.032967,94847399.267399,48253333.333333,112.592743,1,1,1,1,1,25.000000
2568-11-19 12:11:04.310,,,,,,,,,,,,,,,,,,,,,,,,,,,,,,,,,,,,,,,,,,/muse/elements/blink
2568-11-19 12:11:05.177,1.666989780882519,0.9740088771061838,0.8638255864274855,0.9954647941476082,1.726222377971794,0.3430168798115402,0.6821749140246622,1.167775419601172,1.625497590910518,0.4605299266969357,0.7466968326788829,0.7625719295420321,1.155618344779945,0.3455581602937666,0.2996925606736657,0.706159425045087,0.1552329119498458,-0.03012465800647739,-0.06124218173618872,0.3426085704187514,893.6996336996338,799.8168498168499,780.0732600732601,809.4871794871796,795.3846153846154,-0.039429,0.070862,1.000793,-0.269165,-1.816864,-0.216827,352967.032967,94870769.230769,48239633.699634,112.592743,1,1,1,1,1,25.000000
2568-11-19 12:11:05.525,,,,,,,,,,,,,,,,,,,,,,,,,,,,,,,,,,,,,,,,,,/muse/elements/blink
2568-11-19 12:11:06.189,1.910291338326981,0.42780221790458,0.9857700342560517,0.8282217475339562,1.839045873528112,0.221094956394971,0.5916710309918669,0.5080694478568762,1.663833145477893,0.4442085751080918,0.6195127592382336,0.8177016668626567,1.0499362637896,0.1093343377826206,0.2346114248820333,0.6093851017051649,0.08027982686104292,0.06662702491146606,-0.08944473226704738,0.5125903801530934,780.4761904761905,780.0732600732601,788.1318681318681,1000.07326007326,665.6410256410256,-0.030823,0.072937,0.999695,-0.224304,-1.757050,-0.740204,352967.032967,94610476.190476,48137289.377289,112.592743,1,1,1,1,1,25.000000
2568-11-19 12:11:06.827,,,,,,,,,,,,,,,,,,,,,,,,,,,,,,,,,,,,,,,,,,/muse/elements/blink
2568-11-19 12:11:07.177,1.919814175417546,0.4940736059381982,1.000605221354807,1.082179777298777,1.711194019850964,0.2966657070436556,0.43374747815015,0.6149139347345065,1.412831531356993,0.3196867120429288,0.7189344314986414,0.8020565391722441,0.7482723209445473,0.1088935751364783,0.180297561113027,0.5641249174895446,0.08300440501411824,-0.0712665441421058,-0.1097288096548138,0.4958196191050028,770.8058608058608,796.996336996337,782.0879120879121,820.7692307692308,1301.062271062271,-0.028137,0.074768,0.998413,0.216827,-1.629944,0.358887,351355.311355,94554065.934066,48152600.732601,112.592743,1,1,1,1,1,25.000000
2568-11-19 12:11:08.136,1.834012944366636,0.571235233041727,0.8929260303403002,0.9082531635966886,1.287490151499684,0.1221433745712147,0.5223128000853974,0.5028562162992575,1.440081722308147,0.3095220700332196,0.6443223098820327,0.5307577007303859,0.6626651947532523,0.07137888328643169,0.2332040860955588,0.6634588963038266,0.0872280664694125,-0.1051167599627308,-0.1168506808993559,0.3848071012983331,861.4652014652015,792.967032967033,772.4175824175825,846.1538461538462,727.2893772893773,-0.029419,0.077087,1.000183,-0.216827,-1.786957,0.231781,353772.893773,94729743.589744,48193699.633700,112.592743,1,1,1,1,1,25.000000
2568-11-19 12:11:08.192,,,,,,,,,,,,,,,,,,,,,,,,,,,,,,,,,,,,,,,,,,/muse/elements/blink
2568-11-19 12:11:09.153,1.620234354834261,0.4278515527674102,0.8990982119607095,0.4869990732333196,1.31954240344833,0.3411511146923109,0.5520725830725445,0.3754373386740378,1.5073897840638,0.5100961385039502,0.4700730076740585,0.4753607938835019,0.6982277417794431,0.08608787414208169,0.4208520651160463,0.6211664092884828,0.09197678198223679,0.03669976231164863,-0.06140568791698367,0.4174928218257841,788.1318681318681,796.5934065934066,801.4285714285714,990.4029304029305,580.6227106227107,-0.043152,0.068359,0.993835,-0.859833,0.089722,-0.082245,352967.032967,95096410.256410,48270256.410256,112.592743,1,1,1,1,1,25.000000
2568-11-19 12:11:09.419,,,,,,,,,,,,,,,,,,,,,,,,,,,,,,,,,,,,,,,,,,/muse/elements/blink
2568-11-19 12:11:10.168,1.314334569878268,0.5960967113223846,0.9449548622136014,0.7597290719798815,1.385812762761919,0.06156442414763516,0.6890607831008166,0.461200653143685,1.324663617655424,0.4112095830562642,0.6266651413833458,0.7217065810965515,0.8373138018962163,0.2271865362014213,0.397110420559155,0.6339927685758012,-0.01778028682937729,0.1023019913117134,-0.1374965912736795,0.5020500464187864,710.7692307692308,794.5787545787546,792.1611721611722,772.8205128205128,804.6520146520147,-0.041626,0.075073,1.004639,-0.269165,-1.181335,-0.822449,352967.032967,95051282.051282,48296043.956044,112.592743,1,1,1,1,1,25.000000
2568-11-19 12:11:10.670,,,,,,,,,,,,,,,,,,,,,,,,,,,,,,,,,,,,,,,,,,/muse/elements/blink
2568-11-19 12:11:10.945,,,,,,,,,,,,,,,,,,,,,,,,,,,,,,,,,,,,,,,,,,/muse/elements/blink
2568-11-19 12:11:11.184,1.095168759871562,0.6100740737241268,0.9887269088271476,1.010440400933227,0.560790469261396,-0.06062930033871335,0.7218221405850438,0.9901331348006907,1.000577261287863,0.5676058085851554,0.7283469116616554,1.135267847923072,0.624013556536796,0.2431134409158182,0.3693562442657403,0.6751809856682904,-0.09580781025735163,0.1227242851067574,-0.07045996547737442,0.2860726721296061,838.4981684981685,800.2197802197802,793.7728937728938,911.4285714285714,618.4981684981685,-0.044861,0.070190,1.000793,0.052338,-2.198181,-0.134583,354578.754579,94940879.120879,48270256.410256,112.592743,1,1,1,1,1,25.000000
2568-11-19 12:11:12.058,,,,,,,,,,,,,,,,,,,,,,,,,,,,,,,,,,,,,,,,,,/muse/elements/blink
2568-11-19 12:11:12.164,1.039635764122005,0.3277463549657414,0.7155314535231643,0.9797263308416087,0.0897344218971691,-0.1441104256418352,0.4155377885754993,1.010679893532767,0.6536863691189364,0.512273659597809,0.6370003980653044,1.111733660574315,0.3419840318599003,0.2382734093672335,0.3504624802187417,0.6262849895944235,-0.03054504349463759,-0.08748021089961752,-0.2460800029425498,0.2981524379290036,744.2124542124542,790.5494505494506,779.6703296703297,620.5128205128206,482.3076923076923,-0.031860,0.077759,0.997681,0.321503,-2.415009,0.530853,352967.032967,94779706.959707,48200146.520147,112.592743,1,1,1,1,1,25.000000
2568-11-19 12:11:12.219,,,,,,,,,,,,,,,,,,,,,,,,,,,,,,,,,,,,,,,,,,/muse/elements/blink
2568-11-19 12:11:13.162,1.708096503038656,0.3455821679375794,0.7402205771615878,0.5006452139108961,1.51248232665353,0.1540189916643746,0.3547549215129515,0.3256037229539263,1.478316865655436,0.1811758653235781,0.5035884123521622,0.6997193844673638,1.093794559062037,0.2432196715630947,0.2649081146670094,0.5755960318903578,0.1767470854147369,-0.2117926490794314,-0.1504444922517281,0.4623367214811512,818.3516483516484,804.6520146520147,795.3846153846154,625.7509157509157,576.5934065934066,-0.028809,0.076355,0.997925,-0.104675,-1.816864,0.082245,352161.172161,94546007.326007,48161465.201465,112.592743,1,1,1,1,1,25.000000
2568-11-19 12:11:13.277,,,,,,,,,,,,,,,,,,,,,,,,,,,,,,,,,,,,,,,,,,/muse/elements/blink
2568-11-19 12:11:14.158,1.524845852452475,0.5593464266545913,0.9771485576483934,0.8971474051460869,1.365309765213944,0.5739686639590219,0.8506907108143356,0.4724588486103226,1.34696795695796,0.3577385778025373,0.6539631276386354,0.8316431479972516,0.7654154877279434,0.1039674646184092,0.3129658304214832,0.7506651021043087,0.3862662691388807,-0.06544661599646068,0.02566880615277527,0.5347834145282001,847.7655677655678,803.8461538461539,788.9377289377289,906.1904761904763,584.2490842490843,-0.034485,0.082703,1.004822,0.097198,-1.577606,0.029907,352967.032967,94555677.655678,48180000.000000,112.592743,1,1,1,1,1,25.000000
2568-11-19 12:11:14.586,,,,,,,,,,,,,,,,,,,,,,,,,,,,,,,,,,,,,,,,,,/muse/elements/blink
2568-11-19 12:11:15.173,1.48717538346824,0.7349714367777398,0.9120162016004394,1.104582375373918,1.331216243187448,0.3883343974007561,0.6393869939706812,0.7630161752854324,1.587820582424469,0.3167825767327708,0.6557150116493916,0.9167810786954494,0.7906313067648035,0.2127784442588629,0.307309298107512,0.8934590419240113,0.418181079648015,-0.2095402303700294,-0.08263783997796413,0.7041193918041202,790.1465201465202,793.3699633699634,772.014652014652,957.3626373626374,653.956043956044,-0.030945,0.074402,1.003235,-0.889740,-2.758942,0.231781,352161.172161,94769230.769231,48250915.750916,112.592743,1,1,1,1,1,25.000000
2568-11-19 12:11:15.905,,,,,,,,,,,,,,,,,,,,,,,,,,,,,,,,,,,,,,,,,,/muse/elements/blink
2568-11-19 12:11:16.187,1.532677079568427,0.662020169436116,0.980245394200045,1.302412576050901,1.122163072317621,0.08998919064072028,0.4858870228271783,0.7209181367635353,1.8444081064474,0.4149876064857017,0.6394000060064967,0.7192935488032419,1.079479718639916,0.3967075316131426,0.2853222413321405,0.8125218707355569,0.217599351606563,-0.3198247394900243,-0.2101389830322706,0.9725278318897298,821.978021978022,801.8315018315019,772.8205128205128,975.8974358974359,1352.637362637363,-0.038025,0.072205,1.000244,-0.171967,-1.069183,-0.732727,352967.032967,94877216.117216,48276703.296703,112.592743,1,1,1,1,1,25.000000
2568-11-19 12:11:17.108,,,,,,,,,,,,,,,,,,,,,,,,,,,,,,,,,,,,,,,,,,/muse/elements/blink
2568-11-19 12:11:17.160,1.60484289892618,0.655273516881179,0.8358413990699893,1.380188007261424,1.331477027403265,0.05998339096912226,0.6102943736394937,0.4941020077139746,1.650328395276003,0.6287989339770439,0.624300361535039,0.4529250331615214,1.307935080262289,0.3610639598818999,0.3044877187700638,0.7442641361345913,0.2593340795380849,0.00250871970869482,-0.2560836042174871,1.118902280520762,838.0952380952381,807.4725274725275,752.6739926739926,932.7838827838829,883.2234432234433,-0.032043,0.072327,0.998230,-0.022430,-2.168274,-0.508423,352161.172161,94786153.846154,48265421.245421,112.592743,1,1,1,1,1,25.000000
2568-11-19 12:11:18.141,1.640743845383132,0.6093739012814515,0.9767175749242326,1.380188007261424,1.465335529779241,0.1815544441057751,0.7668749098471991,0.4941020077139746,1.173651139885112,0.3247371149415804,1.040863729342055,0.4529250331615214,1.071847953739555,0.4336340481841307,0.3330856666962702,0.7442641361345913,0.3318019525031439,-0.2432103237540764,0.08756306751673164,1.118902280520762,748.6446886446887,777.6556776556777,771.6117216117216,941.2454212454213,554.8351648351648,-0.033203,0.073486,0.995361,0.239258,-1.764526,-0.164490,352967.032967,94681391.941392,48088937.728938,112.592743,1,1,1,1,1,25.000000
2568-11-19 12:11:18.253,,,,,,,,,,,,,,,,,,,,,,,,,,,,,,,,,,,,,,,,,,/muse/elements/blink
2568-11-19 12:11:18.431,,,,,,,,,,,,,,,,,,,,,,,,,,,,,,,,,,,,,,,,,,/muse/elements/blink
2568-11-19 12:11:18.728,,,,,,,,,,,,,,,,,,,,,,,,,,,,,,,,,,,,,,,,,,/muse/elements/blink
2568-11-19 12:11:19.141,1.640743845383132,0.8579021208655077,0.7960816452016362,1.380188007261424,1.465335529779241,0.5200596889120137,0.7951881721960854,0.4941020077139746,1.173651139885112,0.7821460024178947,1.15835776798286,0.4529250331615214,1.071847953739555,0.5550937676847021,0.6078060396650392,0.7442641361345913,0.3318019525031439,0.125069515155832,0.5265006177049891,1.118902280520762,735.7509157509157,810.6959706959707,794.5787545787546,703.1135531135532,576.996336996337,-0.031006,0.076477,1.003540,0.119629,-1.996307,-0.695343,352967.032967,94513772.893773,48003516.483516,112.592743,1,1,1,1,1,25.000000
2568-11-19 12:11:19.663,,,,,,,,,,,,,,,,,,,,,,,,,,,,,,,,,,,,,,,,,,/muse/elements/blink
2568-11-19 12:11:20.142,1.506943180261683,1.176286529022061,0.8104122104210515,0.9106484853765936,1.599166279473838,0.9149627437823706,0.6395700452369737,1.035402173123856,1.908473815799552,1.108730684143675,0.6297300418379544,1.025230590565778,1.195219905917928,0.5057156762094238,0.5184585041359925,0.8952552815263233,0.386159727681663,0.08956384824303436,0.138276025162687,0.6995000116325085,858.2417582417582,807.8754578754579,791.3553113553114,958.974358974359,765.1648351648352,-0.032837,0.074036,0.997986,0.254211,-1.188812,0.605621,352161.172161,94549230.769231,48019633.699634,112.592743,1,1,1,1,1,25.000000
2568-11-19 12:11:21.015,,,,,,,,,,,,,,,,,,,,,,,,,,,,,,,,,,,,,,,,,,/muse/elements/blink
2568-11-19 12:11:21.138,1.520493354428921,0.803883615386944,1.090885351303161,1.041911327930745,1.647929763077395,0.3483543873368884,0.7805923059405091,1.150681883919243,1.829867823389349,0.5299082102047135,0.9428558039216776,1.044652365410512,1.014204955063697,0.2725929967299545,0.4406848420359895,0.7889857554077032,0.3734870310389491,-0.1272518067997971,-0.00536756821706579,0.7175348429456314,752.2710622710623,806.6666666666667,789.3406593406594,828.8278388278388,554.4322344322344,-0.034302,0.072021,1.005066,-0.643005,-1.958923,-0.299072,353772.893773,94799853.479853,48099413.919414,112.592743,1,1,1,1,1,25.000000
2568-11-19 12:11:22.143,1.431298029705334,0.9321587551168699,1.210335555608501,1.249812469309386,1.369618581926128,0.2297515038088349,0.7596466699737803,1.126673054350668,1.708810644603477,0.6347533162018738,0.946596051561029,0.9818424365037381,1.148979977352734,0.3443037283299014,0.3518685092236527,0.7209098213023223,0.2471036428077859,-0.1231387859569174,0.09912167006803548,0.7189462829828753,684.981684981685,796.5934065934066,790.952380952381,758.7179487179487,1127.399267399268,-0.033569,0.066406,1.000549,-0.373840,-1.181335,-1.173859,352161.172161,94807106.227106,48128424.908425,112.592743,1,1,1,1,1,25.000000
2568-11-19 12:11:22.378,,,,,,,,,,,,,,,,,,,,,,,,,,,,,,,,,,,,,,,,,,/muse/elements/blink
2568-11-19 12:11:23.149,1.566572299700459,0.605854866385771,0.6798727469368836,1.249812469309386,1.7093617055342,0.190445664410918,0.409414193273678,1.126673054350668,1.69383574591855,0.562049104686741,0.7411645203737863,0.9818424365037381,1.051873762177076,0.1723224474376256,0.2734602671815689,0.7209098213023223,0.3028979590058947,-0.1505051432812413,-0.123906428630335,0.7189462829828753,856.2271062271062,801.025641025641,796.996336996337,980.7326007326008,642.6739926739926,-0.037048,0.066345,1.003540,-0.142059,-2.123413,-0.942078,353772.893773,94622564.102564,48123589.743590,112.592743,1,1,1,1,1,25.000000
2568-11-19 12:11:23.633,,,,,,,,,,,,,,,,,,,,,,,,,,,,,,,,,,,,,,,,,,/muse/elements/blink
2568-11-19 12:11:24.154,1.254636639630241,0.7725883547145302,0.4111191300082967,1.249812469309386,1.29960648791773,0.207118307005444,0.3363503136031604,1.126673054350668,1.180450664076497,0.4907431187281253,0.6786048674754839,0.9818424365037381,0.7879706806420362,0.1640106330018827,0.3537155131644232,0.7209098213023223,0.3839720100191144,-0.1520419784357809,-0.2055045361739448,0.7189462829828753,796.996336996337,797.8021978021978,796.996336996337,933.1868131868132,603.992673992674,-0.036194,0.068359,1.006409,0.710297,-2.340240,0.314026,353772.893773,94796630.036630,48113113.553114,112.592743,1,1,1,1,1,25.000000
2568-11-19 12:11:24.925,,,,,,,,,,,,,,,,,,,,,,,,,,,,,,,,,,,,,,,,,,/muse/elements/blink
2568-11-19 12:11:25.163,0.6416061379015742,0.8376046656733258,0.5902793917304726,1.249812469309386,0.4956201662670426,0.3377439159327593,0.4448226827099106,1.126673054350668,0.7736203724499012,0.5139219767718618,0.7442969325575942,0.9818424365037381,0.6044435659932855,0.1748797909860319,0.3189375253056905,0.7209098213023223,0.3428540984310384,-0.0165454568803002,-0.08226617915956033,0.7189462829828753,793.7728937728938,801.8315018315019,808.2783882783883,666.8498168498169,511.3186813186813,-0.029541,0.068848,0.996277,-0.366364,-1.742096,-0.314026,352967.032967,94395311.355311,48122783.882784,112.592743,1,1,1,1,1,25.000000
2568-11-19 12:11:26.140,0.8134712851506199,0.904482157494457,0.8661601759305327,1.249812469309386,0.5734896886216534,0.3233437799757367,0.481928543501376,1.126673054350668,0.7081914756415285,0.5435507403638172,0.5232007383544626,0.9818424365037381,0.6253802135143698,0.06361992280420486,0.2633818509939784,0.7209098213023223,0.378633696610169,-0.02903699817281038,-0.02192487959749487,0.7189462829828753,869.92673992674,803.8461538461539,782.0879120879121,836.0805860805862,830.0366300366301,-0.042786,0.067017,0.998657,-0.074768,-0.448608,-0.179443,353772.893773,94567765.567766,48190476.190476,112.592743,1,1,1,1,1,25.000000
2568-11-19 12:11:26.274,,,,,,,,,,,,,,,,,,,,,,,,,,,,,,,,,,,,,,,,,,/muse/elements/blink
2568-11-19 12:11:26.582,,,,,,,,,,,,,,,,,,,,,,,,,,,,,,,,,,,,,,,,,,/muse/elements/blink
2568-11-19 12:11:27.175,0.9874609486245314,0.4456204480550411,0.7659835668145168,1.249812469309386,0.8059033435974746,0.199550886845346,0.2153837848256051,1.126673054350668,0.8578237047017198,0.297965288043378,0.15753967451225,0.9818424365037381,0.5835109671298166,0.1812463257604522,0.2676326053274837,0.7209098213023223,0.4101825607169961,-0.1767706608252866,-0.1681607331534647,0.7189462829828753,837.6923076923077,789.7435897435897,776.8498168498169,916.6666666666667,702.7106227106227,-0.032959,0.064697,0.997498,-0.508423,-1.547699,-0.269165,353772.893773,94853846.153846,48307326.007326,112.592743,1,1,1,1,1,25.000000
2568-11-19 12:11:27.817,,,,,,,,,,,,,,,,,,,,,,,,,,,,,,,,,,,,,,,,,,/muse/elements/blink
2568-11-19 12:11:28.147,1.141938078545899,0.7726503360482285,0.8282852035271158,0.7437482769318828,0.8010754597722354,0.1643325610149668,0.2721539158701353,0.5036227996869527,1.407013752509727,0.5645848428632612,0.3747104010611736,0.7831342893665403,0.7845458881293169,0.2588263893443081,0.1232907974485236,0.8502129214858426,0.3422564282169288,0.03367626706538031,-0.1230567892326237,0.5706898606386582,770,798.2051282051282,803.040293040293,655.1648351648352,691.4285714285714,-0.040405,0.061829,0.995239,-0.269165,-1.218719,-1.016846,352161.172161,94844981.684982,48292014.652015,112.592743,1,1,1,1,1,25.000000
2568-11-19 12:11:28.919,,,,,,,,,,,,,,,,,,,,,,,,,,,,,,,,,,,,,,,,,,/muse/elements/blink
2568-11-19 12:11:29.184,1.545894235229258,0.5791822470707715,0.5716406030399972,0.7375934398129759,1.251614348529163,0.2015611157714408,0.2703193415773947,0.4336916678717441,1.414251921263162,0.3971546214535885,0.4605440973165816,0.7831342893665403,0.8891902899972366,0.1626233853555123,0.1683205526827761,0.8055462799790004,0.2689097391065042,0.1031471328134344,-0.1005334199744489,0.578131384735085,875.1648351648352,808.6813186813187,793.7728937728938,905.3846153846154,1028.681318681319,-0.043701,0.070190,1.000244,0.448608,-1.360779,-0.082245,352161.172161,94666886.446886,48241245.421245,112.592743,1,1,1,1,1,25.000000
2568-11-19 12:11:30.128,,,,,,,,,,,,,,,,,,,,,,,,,,,,,,,,,,,,,,,,,,/muse/elements/blink
2568-11-19 12:11:30.181,1.458412748325908,0.8160492331691109,0.4739220700411609,0.6874775915406847,1.073840261050406,0.3108917965342813,0.4074041022576355,0.5747896743868141,1.25918544366626,0.4432948233502275,0.6540550086500807,0.8815370018233964,0.9438141213723534,0.1477450110864719,0.2650644518516114,0.8521687924371535,0.2147026583475642,0.0199653516510867,-0.06493558292072912,0.6480593921139731,822.7838827838829,799.0109890109891,779.6703296703297,882.014652014652,653.5531135531136,-0.038086,0.070374,0.999512,-0.134583,-1.570129,-0.007477,352161.172161,94718461.538462,48242051.282051,112.592743,1,1,1,1,1,25.000000
2568-11-19 12:11:31.138,1.06071710426047,0.6012619398561384,0.5947821480648762,0.8164974379929112,1.030977856507673,0.4354830888454522,0.3974199647044063,0.4003889047933991,1.64855805606661,0.4976490489202359,0.6991322566750992,0.8421511637623514,0.8682087438668172,0.2457557886461972,0.1832840238680305,0.9031853971376222,0.2597693797615329,0.08593437179668968,-0.0273277804758366,0.3325816537208294,748.2417582417582,782.0879120879121,778.0586080586081,749.047619047619,601.978021978022,-0.039368,0.075134,0.999084,-0.104675,-2.108459,0.291595,352161.172161,94872380.952381,48291208.791209,112.592743,1,1,1,1,1,25.000000
2568-11-19 12:11:31.530,,,,,,,,,,,,,,,,,,,,,,,,,,,,,,,,,,,,,,,,,,/muse/elements/blink
2568-11-19 12:11:32.161,1.35640985212533,0.4552229147286578,0.6461044657962458,0.8934431792874274,1.37672500117399,0.3666345322006603,0.3387399245446428,0.4404324320562519,1.68299550125224,0.5469121341016864,0.6683926557000472,0.7363260944795883,1.035301345115355,0.1952634364392518,0.1056153602997739,0.6897685695019011,0.139607302036101,-0.05556628765227607,-0.1955813444770752,0.1722134625326998,869.92673992674,798.2051282051282,791.7582417582418,858.6446886446887,780.0732600732601,-0.044250,0.072144,1.003296,-0.044861,-1.502838,-0.052338,352161.172161,94656410.256410,48236410.256410,112.592743,1,1,1,1,1,25.000000
2568-11-19 12:11:32.769,,,,,,,,,,,,,,,,,,,,,,,,,,,,,,,,,,,,,,,,,,/muse/elements/blink
2568-11-19 12:11:33.170,,,,,,,,,,,,,,,,,,,,,,,,,,,,,,,,,,,,,,,,,,/muse/elements/blink
2568-11-19 12:11:33.171,1.280400185603735,0.4407098977070808,0.4501474238595008,0.8489792398901229,1.303070743523366,0.4063955823788987,0.2710416289297568,0.4208107097703244,1.560566135901875,0.4888652899448056,0.6400133970523887,0.7040370115431037,1.044614339341458,0.1743431891867971,0.1169503224649343,0.5932736023024482,0.170574488507668,0.01595627211455928,-0.01458001361157501,0.3631977355962323,727.2893772893773,799.8168498168499,791.7582417582418,695.8608058608058,549.1941391941392,-0.044739,0.072144,0.995361,0.052338,-1.682281,-0.186920,351355.311355,94626593.406593,48219487.179487,112.592743,1,1,1,1,1,25.000000
2568-11-19 12:11:34.158,,,,,,,,,,,,,,,,,,,,,,,,,,,,,,,,,,,,,,,,,,/muse/elements/blink
2568-11-19 12:11:34.159,1.265679502500981,0.4775693497731054,0.4428283208404402,0.9960489267259235,1.494000570931077,0.2942062015149496,0.4244842874362648,0.6017665288882796,1.698015608142551,0.5340228280045869,0.4397803642062433,1.038787772170983,1.032943820009856,0.1293112320531332,0.1003927968314062,0.6381703239982898,0.2636018787392968,-0.06629408835268377,-0.08638574412653688,0.2760596768024319,785.7142857142858,790.952380952381,788.1318681318681,671.2820512820513,728.4981684981685,-0.044983,0.071777,0.995850,-0.186920,-1.824341,-0.785065,353772.893773,94717655.677656,48229157.509158,112.592743,1,1,1,1,1,25.000000
2568-11-19 12:11:35.147,1.452740654066064,0.470635027591506,0.6102736633107384,0.8996713827330071,1.624179667888089,-0.01232363733568397,0.2785093209795654,0.6327058869163412,1.6249407860786,0.5215070551457807,0.5789571964040529,1.179335969019982,1.011324982614617,0.1866459758790248,0.1906760600773894,0.7765453507354945,0.2622761502282083,0.005038478001186355,-0.1668940729241278,0.4884710811387477,879.1941391941392,784.9084249084249,792.1611721611722,821.1721611721612,742.1978021978023,-0.042114,0.075256,1.003540,-0.530853,-1.764526,0.082245,352967.032967,94718461.538462,48204175.824176,112.592743,1,1,1,1,1,25.000000
2568-11-19 12:11:35.390,,,,,,,,,,,,,,,,,,,,,,,,,,,,,,,,,,,,,,,,,,/muse/elements/blink
2568-11-19 12:11:36.161,1.343511210089033,0.567455025699883,0.8159223483910872,0.5529855541554772,1.30360158454088,0.01671126033099744,0.4790516173635579,0.4595418051424748,1.628757596064677,0.3883626020218623,0.5662553583797024,1.097464436688018,0.8944868699854547,0.2507778660880142,0.2214344487140882,0.6569855229634967,0.3158612812376164,0.1622879587228189,-0.1282863328198847,0.581353110718703,706.7399267399268,808.6813186813187,794.981684981685,706.7399267399268,506.8864468864469,-0.039001,0.077332,1.001953,0.082245,-0.000000,0.149536,352967.032967,94589523.809524,48228351.648352,112.592743,1,1,1,1,1,25.000000
2568-11-19 12:11:36.833,,,,,,,,,,,,,,,,,,,,,,,,,,,,,,,,,,,,,,,,,,/muse/elements/blink
2568-11-19 12:11:37.147,,,,,,,,,,,,,,,,,,,,,,,,,,,,,,,,,,,,,,,,,,/muse/elements/blink
2568-11-19 12:11:37.149,1.378607497767607,0.712332287947933,0.6523157589719001,0.4755196579499307,1.001005229980384,0.3894572802867329,0.3036073504231955,0.5742156814257879,1.709992147584314,0.7375065373267369,0.5221058683592323,0.7991994429620911,0.9096163770000595,0.1974131060442964,0.3447094787780891,0.6481357907219907,0.09341969589980804,0.09948533058049223,-0.04582400573763176,0.4818194841120624,714.3956043956044,809.4871794871796,810.2930402930403,660.4029304029305,497.2161172161173,-0.040405,0.072266,0.998291,0.142059,-1.951447,-0.171967,352161.172161,94617728.937729,48234798.534799,112.592743,1,1,1,1,1,25.000000
2568-11-19 12:11:38.085,,,,,,,,,,,,,,,,,,,,,,,,,,,,,,,,,,,,,,,,,,/muse/elements/blink
2568-11-19 12:11:38.141,1.475454723942857,0.7457911265713832,0.3013811661180743,0.2253830260133584,1.395485681243799,0.3008855531474195,0.2771448067957655,0.2456898444635974,1.703896132196908,0.470611584302718,0.3163969585497036,0.7625397091745689,1.069639796413185,0.1279428585489863,0.2222970740629379,0.7045957913124183,0.1286452734093944,-0.1005274260513891,-0.1191295409497563,0.4383649888940057,867.5091575091575,799.0109890109891,795.7875457875458,822.3809523809524,799.8168498168499,-0.038086,0.075073,0.999695,-0.441132,-1.652374,-0.396271,352161.172161,94637875.457875,48209816.849817,112.592743,1,1,1,1,1,25.000000
2568-11-19 12:11:39.183,1.727976830391188,0.7138646345573761,0.09626454305282314,0.5713156364242006,1.49947358490918,0.1611288851466257,-0.02939153432324224,0.5135137909157311,1.609288926875291,0.5568908279978086,0.144306493020558,0.6867581571109319,0.9595063385707039,0.2746333019813679,0.1323236164156767,0.703669671317382,0.2115253992157768,-0.2852662070832446,-0.1215979384819207,0.4392862929150109,844.1391941391942,790.952380952381,800.2197802197802,908.2051282051282,682.1611721611722,-0.030273,0.079041,1.000427,-0.411224,-2.572021,0.216827,353772.893773,94535531.135531,48167106.227106,112.592743,1,1,1,1,1,25.000000
2568-11-19 12:11:39.555,,,,,,,,,,,,,,,,,,,,,,,,,,,,,,,,,,,,,,,,,,/muse/elements/blink
2568-11-19 12:11:40.177,1.126719789139937,0.5789494017374223,0.5361082591949655,0.8975731479388095,1.059426426906528,0.2570428121880173,0.2382828137239335,0.8999135391222279,1.614583178106482,0.5862348291060691,0.2624305790318518,0.9332197577126756,0.8908125086162535,0.2647487145678969,0.3400874842164208,0.7017152279171789,0.1718251060317594,-0.1696664550777415,-0.1290922256601968,0.3888040329948491,754.6886446886447,785.7142857142858,793.7728937728938,864.2857142857143,765.1648351648352,-0.038635,0.076538,0.998535,-0.007477,-1.211243,-0.306549,352161.172161,94431575.091575,48183223.443223,112.592743,1,1,1,1,1,25.000000
2568-11-19 12:11:40.751,,,,,,,,,,,,,,,,,,,,,,,,,,,,,,,,,,,,,,,,,,/muse/elements/blink
2568-11-19 12:11:41.147,1.045707477016695,0.5505729001605345,0.663360638414269,1.240104316595714,1.324666326460542,0.4194390856715717,0.5121455071083456,1.124148442131965,1.754871149077933,0.3574597471956594,0.5733108555407093,1.046226949148679,0.5736118317841213,0.1910567473848184,0.2519001661486152,0.8802138635569133,0.1798986089362922,-0.02822408769440186,-0.1523640566722615,0.4887077816933143,827.2161172161173,805.0549450549451,807.0695970695971,771.2087912087912,731.3186813186813,-0.034302,0.068176,0.997009,-0.269165,-2.048645,-0.171967,352161.172161,94490402.930403,48170329.670330,112.592743,1,1,1,1,1,25.000000
2568-11-19 12:11:42.014,,,,,,,,,,,,,,,,,,,,,,,,,,,,,,,,,,,,,,,,,,/muse/elements/blink
2568-11-19 12:11:42.172,1.405796797793558,0.3426158558181081,0.6571991526523383,1.426863121099292,1.37340219225964,0.3977725627476695,0.4494772257044475,1.280593812348441,1.697075904233646,0.2212408107921814,0.6206784037579359,1.015687497136164,0.6466480558940504,0.2303823086624436,0.1457286549712374,0.9855484127761124,0.1600630377861756,-0.1861825647141732,-0.1280963757575773,0.5880790497485453,855.4212454212454,792.5641025641025,782.893772893773,901.7582417582418,562.0879120879121,-0.036499,0.070374,0.999817,-0.321503,-1.854248,-0.142059,352161.172161,94605641.025641,48150989.010989,112.592743,1,1,1,1,1,25.000000
2568-11-19 12:11:43.155,1.199867189315245,0.5245278342460242,0.3844840985568651,0.8774593887969381,0.8703218166882869,0.3023586476358346,0.3923290277603633,0.5528134483389383,1.069349431098342,0.4160238066502188,0.6944418212829582,0.6341094405264276,0.6984450144774962,0.2598495223188954,0.2456493329288121,0.6112599284928708,0.1854688166605334,0.05081141762924565,-0.09332988036394975,0.3380932928116818,753.0769230769231,797.3992673992674,792.1611721611722,837.2893772893773,974.6886446886447,-0.033997,0.068787,1.001831,-0.553284,-1.517792,-0.448608,352161.172161,94385641.025641,48086520.146520,112.592743,1,1,1,1,1,25.000000
2568-11-19 12:11:43.289,,,,,,,,,,,,,,,,,,,,,,,,,,,,,,,,,,,,,,,,,,/muse/elements/blink
2568-11-19 12:11:44.188,1.107492932298501,0.6619868039034412,0.3325068378901223,0.6646751708982673,0.9395292142130716,0.1049527819098815,0.1230403582838153,0.5332863711360571,0.9352297679357796,0.4739060277507637,0.7036697078197875,0.6433115830405539,0.7993688571989692,0.2219682773354872,0.2394199904697168,0.633012047624129,0.1246172029951307,0.09912404525224211,-0.1354366540382178,0.3806306673794083,838.901098901099,807.0695970695971,792.967032967033,808.2783882783883,633.0036630036631,-0.033203,0.064941,1.001953,-0.059814,-1.742096,0.059814,352161.172161,94350183.150183,48068791.208791,112.592743,1,1,1,1,1,25.000000
2568-11-19 12:11:44.522,,,,,,,,,,,,,,,,,,,,,,,,,,,,,,,,,,,,,,,,,,/muse/elements/blink
2568-11-19 12:11:45.152,1.233678413523629,0.6821882966363431,0.3688845350103702,0.5355869144563732,1.016809970827733,0.331877211801487,0.2951122865796804,0.4059804201401553,1.654689740454069,0.7259444437454705,0.5494216304112948,0.6431332014431489,0.8078990795440639,0.2015527601332731,0.0768851275705217,0.6634860970761879,0.168395387274212,0.06526546851533901,-0.0925538249769597,0.4256750330407273,822.7838827838829,794.981684981685,788.9377289377289,904.981684981685,541.1355311355311,-0.037231,0.069702,0.997375,-0.269165,-1.794434,0.194397,352967.032967,94480732.600733,48087326.007326,112.592743,1,1,1,1,1,25.000000
2568-11-19 12:11:45.868,,,,,,,,,,,,,,,,,,,,,,,,,,,,,,,,,,,,,,,,,,/muse/elements/blink
2568-11-19 12:11:46.138,0.9416823336204819,0.2149815021319064,0.4292190021000287,1.010213546983748,0.9326892796076272,0.354316318078615,0.4403436101016741,0.417288517253145,1.649746472636162,0.7287371835801314,0.3888788768666364,0.6990550030258633,0.7773756320075829,0.2804860967690342,0.2239887134757872,0.5895035220460615,0.1907435298095182,-0.07317668271323478,-0.1278250265023293,0.3387873439620867,743.0036630036631,808.2783882783883,801.4285714285714,813.919413919414,1059.304029304029,-0.035583,0.070435,1.004944,0.493469,-2.213135,0.515900,352967.032967,94533113.553114,48080879.120879,112.592743,1,1,1,1,1,25.000000
2568-11-19 12:11:47.168,1.105660244768561,0.3267356968347909,0.4803734884436511,0.9226976324047753,0.8698678172901978,0.2880126246525493,0.4709478216432439,0.4470907117136071,1.246445776125979,0.5015195860782696,0.4672327397804184,0.6406518540846197,0.7711854735482984,0.2389938092543105,0.2629413814499774,0.6044074055953436,0.1672792347493089,-0.1218704449874154,-0.2292622805327471,0.2300109241076828,734.9450549450549,801.4285714285714,799.4139194139194,651.5384615384615,550.8058608058608,-0.030457,0.070801,1.002075,-0.448608,-1.286011,-0.687866,352161.172161,94169670.329670,48009157.509158,112.592743,1,1,1,1,1,25.000000
2568-11-19 12:11:47.169,,,,,,,,,,,,,,,,,,,,,,,,,,,,,,,,,,,,,,,,,,/muse/elements/blink
2568-11-19 12:11:47.391,,,,,,,,,,,,,,,,,,,,,,,,,,,,,,,,,,,,,,,,,,/muse/elements/blink
2568-11-19 12:11:48.153,1.204329202716523,0.6945182927632965,0.7631413568877669,0.8887127363684723,0.8375398665611101,0.5681942635829924,0.3844686508540601,0.2797993939345128,1.297543239194175,0.6895875426170746,0.5848236826410954,0.2450676646973307,0.8591837472388629,0.2830087832702285,0.2567867062242594,0.6613528106411812,0.04080536700756066,-0.2800206151596109,-0.3067948031314914,0.2696844706877883,832.0512820512821,800.2197802197802,790.1465201465202,941.6483516483516,514.9450549450549,-0.040710,0.072021,0.999084,0.149536,-1.114044,-0.471039,352967.032967,94238974.358974,48024468.864469,112.592743,1,1,1,1,1,25.000000
2568-11-19 12:11:48.510,,,,,,,,,,,,,,,,,,,,,,,,,,,,,,,,,,,,,,,,,,/muse/elements/blink
2568-11-19 12:11:49.179,1.000440736470154,0.7199285865715567,0.8672665530811199,1.009119084051927,1.369598844638933,0.564453441382084,0.5394319489432682,0.7796332869757308,1.632635053411833,0.8451805475880746,0.5701920505900884,0.9175613020204846,0.7427291767406998,0.4340977368133177,0.2063434329447861,0.8035262654755249,0.2124942338440598,0.01172511970999424,-0.2607954087098672,0.542240934975372,705.1282051282052,796.5934065934066,786.5201465201466,739.7802197802198,666.4468864468864,-0.037292,0.069275,1.001160,-0.171967,-1.592560,-0.456085,352967.032967,94367106.227106,48066373.626374,112.592743,1,1,1,1,1,25.000000
2568-11-19 12:11:49.742,,,,,,,,,,,,,,,,,,,,,,,,,,,,,,,,,,,,,,,,,,/muse/elements/blink
2568-11-19 12:11:50.161,0.6521774357243599,0.4685102552724693,0.6997618509115937,0.7234891359205184,0.6490253845991268,0.2747752875787962,0.4216518719113527,0.8127405539736442,0.9871741716749561,0.7181770928468221,0.6798559233776607,0.9576099057815654,0.5738228027730132,0.5308434217496292,0.2454503296051076,0.7792164612754255,0.1475053483404477,-0.04661963073969693,-0.1555369866051742,0.4165034332048717,872.7472527472528,806.6666666666667,813.1135531135532,927.5457875457876,693.040293040293,-0.035095,0.071289,1.001709,-0.284119,-1.884155,0.328979,353772.893773,94510549.450549,48109084.249084,112.592743,1,1,1,1,1,25.000000
2568-11-19 12:11:50.837,,,,,,,,,,,,,,,,,,,,,,,,,,,,,,,,,,,,,,,,,,/muse/elements/blink
2568-11-19 12:11:51.151,0.7673615358520459,0.7503167098562816,0.4405481992054988,0.9482981085903271,0.4630750954213482,0.4746266384768726,0.3573459319079403,0.8766680442816275,0.8111226325776414,0.8171003857062344,0.6678625902786198,0.9979879403982129,0.448634388839172,0.3824276280528303,0.3832166720622945,0.7302607889602378,0.3147854370059162,-0.1162263144950833,-0.180618247081742,0.5172545616706847,741.3919413919414,803.8461538461539,787.7289377289378,828.4249084249085,649.1208791208792,-0.033020,0.064453,0.998230,-0.635529,-1.652374,-0.695343,353772.893773,94275238.095238,48074432.234432,112.592743,1,1,1,1,1,25.000000
2568-11-19 12:11:51.210,,,,,,,,,,,,,,,,,,,,,,,,,,,,,,,,,,,,,,,,,,/muse/elements/blink
2568-11-19 12:11:52.179,0.992716763436849,1.071893897866189,1.011844605561346,1.222433678195677,0.4998868899899815,0.7280190492681629,0.8392212036927182,1.033637231307315,0.7682513314762074,0.8972666040749911,0.6466301566220567,0.8329675757050823,0.3368795771247275,0.3558925790729039,0.221005966454866,0.7820766004765185,0.3557603292542605,-0.1493593540736448,-0.3211772061391804,0.5211563422126532,737.7655677655678,799.8168498168499,793.3699633699634,694.6520146520147,641.8681318681319,-0.036865,0.064087,0.999084,-0.014954,-1.547699,0.291595,353772.893773,94360659.340659,48092967.032967,112.592743,1,1,1,1,1,25.000000
2568-11-19 12:11:52.180,,,,,,,,,,,,,,,,,,,,,,,,,,,,,,,,,,,,,,,,,,/muse/elements/blink
2568-11-19 12:11:52.347,,,,,,,,,,,,,,,,,,,,,,,,,,,,,,,,,,,,,,,,,,/muse/elements/blink
2568-11-19 12:11:53.177,0.9253481576080322,0.8234968325892356,0.6759021220357948,1.223985886978058,0.7320052347010004,0.5401701235719465,0.3981490674337764,0.8158057417233723,0.6968080640977186,0.577779128205497,0.3390183134692071,0.6552075957424036,0.4144692485675782,0.2802269344250019,0.1892006113254117,0.6305863482279619,0.1184584352995597,-0.1368061813685027,-0.2454399161211757,0.1401976209237219,816.3369963369963,790.952380952381,792.1611721611722,892.0879120879121,1095.970695970696,-0.038330,0.065308,0.996887,-0.598145,-1.839294,-0.530853,354578.754579,94408205.128205,48100219.780220,112.592743,1,1,1,1,1,25.000000
2568-11-19 12:11:53.398,,,,,,,,,,,,,,,,,,,,,,,,,,,,,,,,,,,,,,,,,,/muse/elements/blink
2568-11-19 12:11:54.170,1.081237296986405,0.5998685216823646,0.5405569645384395,1.066485117229502,1.103582740631139,0.6437574164932525,0.2890802939251478,0.738034937743169,1.320764579734773,0.5182600843857803,0.04178922987822712,0.9389475051912327,0.6866867998790521,0.3124894101755122,0.1757017620060025,0.6970424080392443,0.2326160156276769,-0.255705245574454,-0.1708201151081171,0.4974838991005326,798.6080586080586,803.4432234432235,813.919413919414,725.6776556776557,443.6263736263737,-0.031433,0.063354,0.997864,0.127106,-1.256104,0.216827,353772.893773,93919047.619048,47973699.633700,112.592743,1,1,1,1,1,25.000000
2568-11-19 12:11:54.590,,,,,,,,,,,,,,,,,,,,,,,,,,,,,,,,,,,,,,,,,,/muse/elements/blink
2568-11-19 12:11:55.177,1.086967267660708,0.3274262588234574,0.35549458453042,0.7401313343868765,1.000848248677614,0.3758911398009088,0.1325247790392781,0.5868349855874542,1.390512228238577,0.5783164777219205,0.4082554266827961,0.6814441277642009,0.7248716561266182,0.1342590245682407,0.2055287353352814,0.7049403916891187,0.2391162910026044,-0.3638538913160161,-0.2293495263501379,0.5734843012837859,809.8901098901099,799.4139194139194,810.2930402930403,801.8315018315019,1098.791208791209,-0.032654,0.070312,1.003784,0.074768,-1.629944,-0.216827,352967.032967,93798168.498168,47943882.783883,112.592743,1,1,1,1,1,25.000000
2568-11-19 12:11:55.743,,,,,,,,,,,,,,,,,,,,,,,,,,,,,,,,,,,,,,,,,,/muse/elements/blink
2568-11-19 12:11:56.140,1.573602977860069,0.3891450455818237,0.9063267339800732,0.8611202025161377,1.344603121011145,0.3997573707126222,0.3701980488818173,0.4637759219264811,1.413760731695497,0.5964527268309205,0.5431650906284611,0.5189852717550885,1.005509585701383,0.08708775482337082,0.2573076356491656,0.8799885180124362,0.1683558460121009,-0.2772418589874245,-0.2606492150839201,0.3683744442642224,745.8241758241759,790.1465201465202,803.8461538461539,703.5164835164835,497.6190476190476,-0.028381,0.066833,0.998779,-0.373840,-1.712189,0.052338,354578.754579,93884395.604396,47986593.406593,112.592743,1,1,1,1,1,25.000000
2568-11-19 12:11:57.040,,,,,,,,,,,,,,,,,,,,,,,,,,,,,,,,,,,,,,,,,,/muse/elements/blink
2568-11-19 12:11:57.143,1.315118679148124,0.4764231340041801,0.905635657694967,0.8611203994063633,1.217551630054071,0.562787718981073,0.3868460187242023,0.426043586175973,1.55234378516038,0.4616108599342916,0.4585904967739757,0.5105971435977612,1.085957246812215,0.269429762785255,0.264283050841039,0.8969879760130711,0.3030021484954223,-0.05196479884710835,-0.2894945472087007,0.3754539327912275,744.6153846153846,789.3406593406594,805.8608058608058,765.5677655677656,501.2454212454213,-0.034912,0.067871,1.001404,-0.306549,-1.682281,0.231781,352967.032967,93958534.798535,48013186.813187,112.592743,1,1,1,1,1,25.000000
2568-11-19 12:11:58.166,1.468632428677914,0.6809451194631549,0.7451182706614848,0.8611203994063633,1.531215486027599,0.4621219397778756,0.5009607027897377,0.426043586175973,1.748228250231349,0.4835851043760505,0.4427260660467705,0.5105971435977612,0.9034829952551863,0.2869525078939257,0.1897776704455754,0.8969879760130711,0.1581738530726227,-0.1991303472437918,-0.275241195096966,0.3754539327912275,810.2930402930403,796.5934065934066,799.4139194139194,831.6483516483516,1153.992673992674,-0.043457,0.063232,0.998718,0.336456,-0.635529,-0.171967,353772.893773,93839267.399267,48067179.487179,112.592743,1,1,1,1,1,25.000000
2568-11-19 12:11:58.267,,,,,,,,,,,,,,,,,,,,,,,,,,,,,,,,,,,,,,,,,,/muse/elements/blink
2568-11-19 12:11:58.564,,,,,,,,,,,,,,,,,,,,,,,,,,,,,,,,,,,,,,,,,,/muse/elements/blink
2568-11-19 12:11:59.145,1.595305472895397,0.6814833182334393,1.053725591608763,0.8611203994063633,1.613859829066386,0.6881665164005158,0.4505821713333039,0.426043586175973,1.415382102936801,0.3409371920630266,0.6016621180644578,0.5105971435977612,0.6940843482132666,0.1731855547080354,0.2535510134289443,0.8969879760130711,0.1317769323835056,-0.1574328019519045,-0.1795673759863281,0.3754539327912275,747.032967032967,800.6227106227107,782.0879120879121,785.7142857142858,753.8827838827839,-0.027588,0.062805,0.997131,-0.358887,-2.302856,-0.291595,352161.172161,93834432.234432,47965641.025641,112.592743,1,1,1,1,1,25.000000
2568-11-19 12:11:59.589,,,,,,,,,,,,,,,,,,,,,,,,,,,,,,,,,,,,,,,,,,/muse/elements/blink
2568-11-19 12:12:00.140,1.540185438831143,0.6556838987033959,0.9901644366850818,0.8611203994063633,1.282500280151311,0.6356515697502449,0.4138779858750145,0.426043586175973,1.578433517614376,0.5779317091770321,0.7527518581542577,0.5105971435977612,1.606597986753591,0.4678093089143731,0.2250673328319196,0.8969879760130711,0.4971247081503514,0.2600194944653256,0.0471996881145897,0.3754539327912275,783.6996336996338,793.3699633699634,794.981684981685,584.2490842490843,465.3846153846154,-0.029968,0.063904,0.999695,0.022430,-1.562653,-0.246735,353772.893773,93544322.344322,47974505.494505,112.592743,1,1,1,1,1,25.000000
2568-11-19 12:12:00.790,,,,,,,,,,,,,,,,,,,,,,,,,,,,,,,,,,,,,,,,,,/muse/elements/blink
2568-11-19 12:12:01.171,1.247395738052393,0.5830796421615042,0.6902716625760065,0.8611203994063633,1.112758045632839,0.447134081296009,0.4088801565927901,0.426043586175973,1.63335449348357,0.6836350810217179,0.6676815029326491,0.5105971435977612,1.419734519642978,0.3336829429415034,0.1262926705409912,0.8969879760130711,0.4697012812107704,0.107017355811158,-0.01372964404406189,0.3754539327912275,865.4945054945056,806.6666666666667,796.996336996337,866.3003663003664,950.9157509157509,-0.033264,0.067688,0.995361,0.224304,-1.540222,0.358887,352161.172161,93536263.736264,47999487.179487,112.592743,1,1,1,1,1,25.000000
2568-11-19 12:12:02.181,1.117201553015531,0.5490264368552346,0.5584125117998741,1.2077410973573,1.087276799436342,0.4100928434801183,0.1321020881111323,0.7473075384622612,1.5767494932128,0.6877668006415806,0.4842159598292172,0.684635748477508,1.020472626345023,0.6652570346987696,0.094668015882764,0.8708044361912142,0.3438416284468598,-0.03863696770888182,0.03194002959345171,0.798538936928716,749.047619047619,802.2344322344322,786.9230769230769,643.0769230769231,533.8827838827839,-0.031189,0.064941,0.998169,-0.366364,-1.420593,-0.321503,353772.893773,93803809.523810,48077655.677656,112.592743,1,1,1,1,1,25.000000
2568-11-19 12:12:03.148,1.085713105148676,0.6005697455558179,0.6591006650916748,1.199891779985286,1.140067461427173,0.5595291873525228,0.1146723956312726,0.5631495269132407,1.469165633769956,0.6666751724909473,0.531871733974641,0.7023485902052528,0.7010562163893346,0.7169450230381746,0.1387072025742479,0.8612725947979945,0.2429183643558518,-0.0001996901979089328,-0.06010125246304145,0.7248222810946516,811.5018315018315,792.5641025641025,793.7728937728938,648.7179487179487,437.985347985348,-0.038879,0.063416,1.003113,0.209351,-1.846771,0.426178,354578.754579,94093919.413919,48159853.479853,112.592743,1,1,1,1,1,25.000000
2568-11-19 12:12:03.298,,,,,,,,,,,,,,,,,,,,,,,,,,,,,,,,,,,,,,,,,,/muse/elements/blink
2568-11-19 12:12:04.147,1.171362210203813,0.3677260600970759,0.560389282676075,1.131409936079664,1.07907209652826,0.3960132705937791,0.2358022330558422,0.5874735634942391,1.32898982860817,0.5594425165547666,0.6595098096635847,0.6034207602245976,0.8223788583634687,0.2134153155959628,0.2880602607551669,0.8668719978316419,0.2041373621166375,0.04114423067737718,-0.08112815251271038,0.6741759742881606,727.2893772893773,796.1904761904763,784.9084249084249,815.934065934066,729.7069597069598,-0.035583,0.067322,1.005066,0.157013,-1.525269,-0.074768,354578.754579,93950476.190476,48145347.985348,112.592743,1,1,1,1,1,25.000000
2568-11-19 12:12:05.186,0.6644042332299321,0.6724293252443786,0.6748136143903346,1.131409936079664,0.6751132267139303,0.1017074774756348,0.4757771517846289,0.5874735634942391,0.9586991337589857,0.5599802616122604,0.7202912295717199,0.6034207602245976,0.6807162319061025,0.2424991875071563,0.3120586760506496,0.8668719978316419,0.3054780502875237,-0.1594074202273179,-0.0686168217508742,0.6741759742881606,805.4578754578755,780.0732600732601,787.7289377289378,599.1575091575091,665.2380952380953,-0.028687,0.063965,1.000244,0.134583,-2.138367,-0.157013,355384.615385,93986739.926740,48126007.326007,112.592743,1,1,1,1,1,25.000000
2568-11-19 12:12:05.753,,,,,,,,,,,,,,,,,,,,,,,,,,,,,,,,,,,,,,,,,,/muse/elements/blink
2568-11-19 12:12:06.135,0.8208065622760937,0.9740630565384317,0.7966216270819623,1.211096117317477,0.6742346667712437,0.3467776171251234,0.5519733055231802,0.6014113489767248,0.923067508396718,0.624917751394949,0.6811888730802396,0.6588802906895751,0.4493645899583556,0.2448466302179588,0.2516050115809266,0.8104592818585312,0.3135646316748613,-0.2207564068588133,-0.0727426244899942,0.7181960251437414,743.0036630036631,816.7399267399268,801.4285714285714,601.1721611721612,603.5897435897436,-0.028809,0.071838,1.001099,0.650482,-1.951447,0.538330,352967.032967,93998827.838828,48108278.388278,112.592743,1,1,1,1,1,25.000000
2568-11-19 12:12:07.175,0.8697559952844852,0.7365441022164815,0.6112201601562216,1.099136565232036,0.6381564488401639,0.3799214218181774,0.3547321027063061,0.4029565332770693,0.9961188244667104,0.3932624397886759,0.4572044808365546,0.5740609801972346,0.5186236571280344,0.1857841560034504,0.2505574534127288,0.8565879858610619,0.2865240861133194,-0.1796706139820416,-0.3238429500456759,0.7246639609543124,818.3516483516484,806.2637362637363,801.4285714285714,982.7472527472528,1079.85347985348,-0.033691,0.065063,1.000305,0.276642,-1.540222,0.171967,354578.754579,93699047.619048,48036556.776557,112.592743,1,1,1,1,1,25.000000
2568-11-19 12:12:08.137,0.8821689429173767,0.7153132072001218,0.5651716450925479,1.099136565232036,0.688069205103952,0.3505351135044258,0.1553018284777429,0.4029565332770693,0.9051201554976109,0.5628403059367263,0.551275715391645,0.5740609801972346,0.597432159167371,0.1258461724030527,0.3086437185375991,0.8565879858610619,0.467450248011032,-0.1212370243687504,-0.2853743772338536,0.7246639609543124,808.2783882783883,794.981684981685,808.6813186813187,661.6117216117216,516.959706959707,-0.037720,0.065857,1.001892,0.142059,-1.869202,0.097198,354578.754579,93882783.882784,48084102.564103,112.592743,1,1,1,1,1,25.000000
2568-11-19 12:12:08.184,,,,,,,,,,,,,,,,,,,,,,,,,,,,,,,,,,,,,,,,,,/muse/elements/blink
2568-11-19 12:12:09.171,0.8384403338225372,0.6186811232872096,0.6810310667358674,1.042892904657481,0.966139521009173,0.301479768290833,0.3438426936293417,0.6492731817366467,1.36742218469286,0.6841327352524031,0.535330460816078,0.263683671395599,0.8388276644797691,0.06323274783736127,0.2512797776411186,0.7570735267832482,0.3870820272983898,-0.1301067901979702,-0.2694387994021694,0.4206143501274687,871.1355311355312,798.6080586080586,799.8168498168499,890.0732600732601,652.7472527472528,-0.037292,0.067749,1.002136,-0.284119,-2.145844,0.067291,353772.893773,93980293.040293,48093772.893773,112.592743,1,1,1,1,1,25.000000
2568-11-19 12:12:09.426,,,,,,,,,,,,,,,,,,,,,,,,,,,,,,,,,,,,,,,,,,/muse/elements/blink
2568-11-19 12:12:10.165,0.7230360762290539,0.5479520864682831,0.6983526271001592,1.0397089609258,0.8334429548500173,0.4285146427893389,0.5911723968123567,0.5534331926740236,1.354509751667036,0.6240532789807998,0.6876429447885376,0.184383070421834,0.8816865434263315,0.2386292864050883,0.2135419255485439,0.6727389301952525,0.2403372539451244,-0.01678992205465123,-0.2046966764085968,0.3939390610778311,758.7179487179487,799.0109890109891,790.5494505494506,639.8534798534798,516.5567765567765,-0.037842,0.061646,1.004578,0.560760,-1.540222,0.620575,353772.893773,93698241.758242,48027692.307692,112.592743,1,1,1,1,1,25.000000
2568-11-19 12:12:10.622,,,,,,,,,,,,,,,,,,,,,,,,,,,,,,,,,,,,,,,,,,/muse/elements/blink
2568-11-19 12:12:11.174,0.7942869498256805,0.6866910367828277,0.5473965439826286,1.074820307278666,0.705495229625422,0.4948993169796764,0.398367470377717,0.4650572518487346,1.033328962837288,0.5468486534966979,0.6734615401652829,0.8904053709490626,0.696308690621941,0.248615188139965,0.2723518326057928,0.7182041641967294,0.2564092457279407,-0.05628177489285494,-0.1354811026651405,0.52979268978577,857.8388278388279,799.0109890109891,805.8608058608058,733.3333333333334,585.0549450549451,-0.037109,0.068848,1.000183,0.037384,-1.854248,-0.246735,352967.032967,93523369.963370,48013992.673993,112.592743,1,1,1,1,1,25.000000
2568-11-19 12:12:11.871,,,,,,,,,,,,,,,,,,,,,,,,,,,,,,,,,,,,,,,,,,/muse/elements/blink
2568-11-19 12:12:12.156,0.8952815494581901,0.562088331125152,0.5985750972409385,0.8869794005832864,0.7321836160860843,0.3239698571346034,0.5930922003925424,0.4544244977243661,1.131774740798267,0.6393016349384926,0.7201856609601895,0.6767661405089627,0.5560282794839423,0.2717063226573467,0.244318921608957,0.5179221485770699,0.3284941447266708,-0.1191609501194794,-0.1864786295623336,0.5108988807639245,840.5128205128206,801.8315018315019,805.0549450549451,999.6703296703297,718.021978021978,-0.035950,0.062927,0.992676,-0.508423,-1.218719,-0.426178,353772.893773,93761098.901099,48027692.307692,112.592743,1,1,1,1,1,25.000000
2568-11-19 12:12:13.170,0.9127784486034525,0.6534152871906815,0.6422389116581954,0.7444913159711286,0.689623382552372,0.2459779775225626,0.5982553591482115,0.5183656998714496,1.054025061495458,0.4700366813445356,0.6941941478102063,0.6447528219644911,0.3470268617181601,0.2250127580102953,0.2133916715007714,0.4997069254967032,0.2494919404284693,-0.07014686853054318,-0.3079564030392337,0.4663693630028101,740.1831501831502,797.3992673992674,799.0109890109891,881.2087912087912,738.5714285714286,-0.038879,0.056030,1.002136,-0.605621,-1.226196,0.134583,354578.754579,93756263.736264,48000293.040293,112.592743,1,1,1,1,1,25.000000
2568-11-19 12:12:13.386,,,,,,,,,,,,,,,,,,,,,,,,,,,,,,,,,,,,,,,,,,/muse/elements/blink
2568-11-19 12:12:14.168,1.013937020495314,1.104195561260056,0.8584871357797152,0.7048240878541567,0.8119247370750443,0.6748688326519807,0.6212613018846013,0.3727179233953248,1.310187091075437,0.5394738207147252,0.8523937549485892,0.8421496413692184,0.5925228850078977,0.1508393282058158,0.3617163751310848,0.5445539701420413,0.1956638260471288,-0.09525572398651921,-0.06177481451778782,0.4206553826440739,784.5054945054945,788.5347985347986,791.7582417582418,589.4871794871796,469.010989010989,-0.049805,0.056274,1.003052,-0.179443,-0.687866,-0.792542,353772.893773,93854578.754579,48048644.688645,112.592743,1,1,1,1,1,25.000000
2568-11-19 12:12:14.486,,,,,,,,,,,,,,,,,,,,,,,,,,,,,,,,,,,,,,,,,,/muse/elements/blink
2568-11-19 12:12:15.158,1.206529683662101,1.063669521597425,0.8656792335914996,1.380163735750391,1.049246128280825,0.5618683701903854,0.4950915757621473,1.464717426985379,1.619654381584631,0.6231537810760193,0.7730258142757395,1.63095445835375,0.7797141746289405,0.2870386188577282,0.306835095632158,0.9574766413678933,0.3227767108087021,-0.07466344248149233,-0.1443639784617332,0.4417289057366001,816.7399267399268,797.3992673992674,789.7435897435897,984.7619047619048,635.4212454212454,-0.040588,0.060974,1.000610,-0.179443,-2.377625,0.336456,354578.754579,93917435.897436,48045421.245421,112.592743,1,1,1,1,1,25.000000
2568-11-19 12:12:16.163,1.134815878337593,0.5771899400623367,0.5847152109860806,1.018822559174829,0.6766964676166788,0.4772875678476468,0.1041705460766061,1.091349122873093,1.402339673827865,0.7448431126326146,0.6147297592221667,1.523658554678382,0.4925613677183575,0.2429906448775974,0.2305877565168939,0.8290243671757134,0.3398463740164249,-0.1556053014996945,-0.1791775657260191,0.4283499631696652,844.1391941391942,805.4578754578755,797.3992673992674,680.952380952381,1222.490842490843,-0.042664,0.060791,1.000854,0.478516,-1.577606,0.127106,355384.615385,93491941.391941,47971282.051282,112.592743,1,1,1,1,1,25.000000
2568-11-19 12:12:16.330,,,,,,,,,,,,,,,,,,,,,,,,,,,,,,,,,,,,,,,,,,/muse/elements/blink
2568-11-19 12:12:17.077,,,,,,,,,,,,,,,,,,,,,,,,,,,,,,,,,,,,,,,,,,/muse/elements/blink
2568-11-19 12:12:17.178,1.043383093145372,0.8328509237738738,0.6777878740995731,0.06489045677531405,0.6802336878227753,0.4026034322178635,0.2390074572136958,0.3375171578069128,0.8679644537238022,0.6793393694633664,0.5373503994056861,0.7225353170186277,0.4063176704684747,0.3060320675084748,0.1999589331660014,0.8125529282183648,0.183022441727214,-0.3178108119011055,-0.1392304340100676,0.3507848212768104,861.8681318681319,811.0989010989011,793.7728937728938,844.5421245421246,536.3003663003664,-0.042236,0.064453,1.000732,-0.089722,-2.056122,-0.224304,353772.893773,93490329.670330,47927765.567766,112.592743,1,1,1,1,1,25.000000
2568-11-19 12:12:18.141,0.7515077292693745,0.7261987114323716,0.6739025348292211,0.8316026500215067,0.6691631980885825,0.2247469475464312,0.04393369386654541,0.1978258489336374,0.8995629059341055,0.488213860097837,0.4905868043376683,0.5905422651650294,0.6453975415109778,0.2943686468119251,0.1230620154944185,0.4949568897296585,0.02876385721198584,-0.3110161610030829,-0.3587851467659359,0.4043311069367324,813.5164835164835,802.2344322344322,781.6849816849817,940.4395604395605,606.007326007326,-0.042603,0.064270,1.004456,-0.157013,-0.844879,0.171967,354578.754579,93711135.531136,47958388.278388,112.592743,1,1,1,1,1,25.000000
2568-11-19 12:12:18.461,,,,,,,,,,,,,,,,,,,,,,,,,,,,,,,,,,,,,,,,,,/muse/elements/blink
2568-11-19 12:12:19.140,0.8600446660295459,0.5310305329688878,0.461991646045541,0.7826720483896522,0.6618039446976566,0.4248171561911175,-0.02710523083730373,0.4132990239372887,1.176128042072825,0.6312580821346221,-0.04570733938237629,0.7818034859952755,0.5945749676795405,0.3148550173165138,0.04885079252620782,0.4492861626710521,0.1470821132167421,-0.06195146702865505,-0.4550443592340159,0.4177714177662147,703.1135531135532,780.8791208791209,800.6227106227107,544.7619047619048,719.6336996336996,-0.042542,0.054504,0.999878,-0.321503,-1.929016,0.149536,354578.754579,93748205.128205,47962417.582418,112.592743,1,1,1,1,1,25.000000
2568-11-19 12:12:20.135,0.9130163592078935,0.8221009808519609,0.1453780600261009,0.5815277207550082,0.7993666497197619,0.6584569231627757,0.3634472016027894,0.6161065313416226,1.162297079633737,0.6294907144743359,0.522731525401505,0.7123151281757643,0.6138747461341159,0.2719470224552169,0.1696201449740072,0.3156717928313363,0.115763759376013,-0.04642123554961555,-0.4276744696543684,0.4832481407849443,857.032967032967,785.3113553113553,800.2197802197802,826.4102564102565,608.4249084249085,-0.040771,0.062988,1.004150,0.433655,-1.786957,-0.613098,354578.754579,93737728.937729,48002710.622711,112.592743,1,1,1,1,1,25.000000
2568-11-19 12:12:21.161,1.182924308384629,0.9264997305146195,0.2330453825086133,0.469340482906683,0.5910355607106239,0.6152362655848949,0.2765354802863119,0.7074106430543801,0.9805926721378275,0.5094989295829662,0.4857891831883039,0.7013482402202644,0.7125831428546656,0.2609756096694835,-0.02484830200620163,0.246610885882374,0.2005563652330789,0.08496806562106479,-0.2421486247345355,0.4985393967081736,739.3772893772893,796.5934065934066,794.1758241758242,746.6300366300367,798.6080586080586,-0.032227,0.065979,1.007751,0.321503,-2.145844,0.448608,353772.893773,93808644.688645,47992234.432234,112.592743,1,1,1,1,1,25.000000
2568-11-19 12:12:22.152,1.113304325036665,0.5134756129216499,0.3175620544802653,0.469340482906683,1.016034827249812,0.2926597772051241,0.1263472587744301,0.7074106430543801,1.420192990956947,0.5160808436165248,0.3592234550767894,0.7013482402202644,0.8093287311170173,0.04533706174052161,0.147521899431687,0.246610885882374,0.2343597257227809,-0.2177618642018227,-0.2403194289171143,0.4985393967081736,792.967032967033,797.8021978021978,796.5934065934066,647.9120879120879,657.985347985348,-0.036255,0.065613,1.007568,-0.014954,-1.712189,0.201874,354578.754579,93370256.410256,47914871.794872,112.592743,1,1,1,1,1,25.000000
2568-11-19 12:12:23.169,0.9701169495196083,0.1463882674213063,0.5434648975901087,0.8638901286652499,1.100552973821505,0.4032175324569662,0.2240510148201866,0.4224333905188637,1.409581168611144,0.4912688597337069,0.2985712499822375,0.8683195379724967,0.8647959595666932,0.1733253354479358,0.1427574332581671,0.7269192582154,0.3043465505219272,-0.2056432600318369,-0.2009046958211199,0.305456794869589,763.956043956044,810.6959706959707,815.5311355311355,890.0732600732601,892.4908424908425,-0.028198,0.064758,0.999695,-0.291595,-2.362671,-0.149536,353772.893773,93467765.567766,47936630.036630,112.592743,1,1,1,1,1,25.000000
2568-11-19 12:12:24.173,0.712678913422232,0.6893066464056133,0.6462168262045856,1.078540119723017,0.8104782261028116,0.4893280920098218,0.2445547057024757,0.4684831778331565,0.9990511731832101,0.5078895166690283,0.4483475865013496,0.9441001386959129,0.5351246859281227,0.1797692015205521,-0.03202129594288664,0.6748740495962192,0.1342347154045064,-0.1620442470547963,-0.2617235131451608,0.3860724831468745,823.5897435897436,791.3553113553114,790.952380952381,915.8608058608058,744.2124542124542,-0.039795,0.060913,1.006653,0.321503,-1.323395,0.299072,352967.032967,93607985.347985,47973699.633700,112.592743,1,1,1,1,1,25.000000
2568-11-19 12:12:25.152,1.025937796251325,0.7602695903993897,0.8117574846824583,1.33839604321315,0.6896253133849272,0.4470390534028364,0.2985017362422402,0.6741234403182925,1.177734918637354,0.8561755651966018,0.3541375720208156,0.9259094587446177,0.731802965722521,0.2543807202685101,0.05306558739196104,0.576400277113823,0.4184442024853244,0.02195751354879206,-0.3854846287393667,0.3854363959662913,777.2527472527473,788.9377289377289,795.7875457875458,633.8095238095239,639.4505494505495,-0.041870,0.066589,0.999878,0.366364,-1.450500,0.149536,353772.893773,93382344.322344,47920512.820513,112.592743,1,1,1,1,1,25.000000
2568-11-19 12:12:26.135,0.9004314186943276,0.5579681732927562,0.4448565524849869,0.8168970803761157,0.760022050397114,0.3287816267125969,0.2004224927920219,0.5965628181587214,1.20415452319021,0.792930882797831,0.4383154116400347,0.8118212474071589,0.7519258373957498,0.1559127385589553,0.2265820818797732,0.6927679320142801,0.3744321622416221,0.01104434170191073,-0.1857166448982231,0.2552574578578192,822.7838827838829,784.5054945054945,795.7875457875458,750.6593406593407,493.992673992674,-0.043945,0.067566,0.997803,-0.074768,-1.801910,0.314026,352161.172161,93436336.996337,47927765.567766,112.592743,1,1,1,1,1,25.000000
2568-11-19 12:12:27.178,1.154629758053511,0.5644262148116638,0.03810169221798651,1.147613009099062,0.8707227283910225,0.297682263682022,0.1962580108604783,1.516903470208103,1.114936807954491,0.4906122698564123,0.3549448272791165,2.089827070995694,0.5774687276763384,0.1709788532905959,0.2231606370329871,1.236577732715042,0.07278791122079703,-0.06362664005529496,-0.08228261610728886,0.4703986046302183,840.1098901098901,793.7728937728938,796.1904761904763,911.0256410256411,626.5567765567765,-0.041565,0.064392,0.994446,0.097198,-1.727142,-0.269165,354578.754579,93519340.659341,47927765.567766,112.592743,1,1,1,1,1,25.000000
2568-11-19 12:12:28.142,1.083500681647368,0.4478689665127283,0.304563445249008,1.432578725024933,0.8353385811454535,-0.04804671602408383,0.3006073611106173,1.804830117544896,1.159651757959976,0.6759246182326675,0.2789548337080898,2.089827070995694,0.5484043619202175,0.2197030943521893,0.1017348293381835,1.441416456864129,0.1786965784856542,0.06111145720513318,-0.1930151154787654,0.4695649368068487,796.5934065934066,797.3992673992674,799.0109890109891,698.2783882783883,728.901098901099,-0.044983,0.063293,1.003479,-0.381317,-1.674805,-0.478516,354578.754579,93603150.183150,47929377.289377,112.592743,1,1,1,1,1,25.000000
2568-11-19 12:12:29.034,,,,,,,,,,,,,,,,,,,,,,,,,,,,,,,,,,,,,,,,,,/muse/elements/blink
2568-11-19 12:12:29.156,0.8743934126806993,0.5880508158649546,0.4369201697065761,1.014918921457867,0.7145316069452684,0.5433457868464414,0.3938978260373738,0.823613673163241,1.199829578423792,0.6492717390101506,0.6177829234379928,0.609217734224322,0.683276018938537,0.2331140754476611,0.1431686663302744,0.440880801505279,0.176944382149665,0.03068585585555364,-0.3265208759058473,0.2871990486830044,833.2600732600733,785.7142857142858,796.5934065934066,705.1282051282052,426.3003663003663,-0.054871,0.066284,0.997620,0.112152,-0.538330,0.112152,354578.754579,93683736.263736,48007545.787546,112.592743,1,1,1,1,1,25.000000
2568-11-19 12:12:30.183,1.025854902336581,0.8498687191333861,0.4937383265119157,0.9703246632002381,0.8102345523844748,0.6265232605462172,0.3677190108969491,0.630354699925277,1.072950926189906,0.6677624495360108,0.6711455812159935,0.568871370047801,0.5951565336812527,0.2754584843673897,0.2856869677893218,0.4469193594190016,0.1206360671333733,0.002346707908677065,-0.1901356236343775,0.1940961360566994,830.4395604395604,782.893772893773,801.4285714285714,875.1648351648352,589.8901098901099,-0.056274,0.066650,1.000793,0.179443,-1.929016,-0.007477,354578.754579,93838461.538462,48007545.787546,112.592743,1,1,1,1,1,25.000000
2568-11-19 12:12:31.140,0.6688383264765685,0.6004810287136745,0.336447373163662,0.6551133593878754,0.4612668437610808,0.5195347187031091,0.07781304455974355,0.08759486985712993,0.9017506848478699,0.7399652137225371,0.3579434220555345,0.5306074412583287,0.4873643121597694,0.1995988334814133,0.1686396317537202,0.7174322006891816,0.1436138778510558,-0.1702410672475761,-0.2292135139695125,0.3559175290869838,757.1062271062272,803.4432234432235,795.3846153846154,687.3992673992674,1229.74358974359,-0.055176,0.057312,0.994995,0.269165,-1.330872,-0.022430,355384.615385,93403296.703297,47894725.274725,112.592743,1,1,1,1,1,25.000000
2568-11-19 12:12:31.707,,,,,,,,,,,,,,,,,,,,,,,,,,,,,,,,,,,,,,,,,,/muse/elements/blink
2568-11-19 12:12:32.171,0.545407755506047,0.644207043808652,0.4141332226812959,0.6146910716039827,0.3082548396114675,0.4627554713025064,0.2057354618539193,0.3923363000900152,0.7634854314471448,0.6166113823151317,0.4580208596875573,0.7613706282509068,0.5524033921567462,0.2268588565799829,-0.03498105376726462,0.9108516120023836,0.2266340042958566,-0.04680441054881102,-0.2191081964090127,0.4993353450139247,812.7106227106227,799.0109890109891,787.3260073260074,908.6080586080586,657.5824175824176,-0.055481,0.065125,0.999084,0.022430,-1.570129,-0.074768,352967.032967,93356556.776557,47876996.336996,112.592743,1,1,1,1,1,25.000000
2568-11-19 12:12:33.159,0.749188509035925,0.6119461442087027,0.5115808701159046,0.7706038791186139,0.6689217215603036,0.35784967874924,0.2698685840096604,0.6108784864539257,0.8909199747845264,0.5393486793483283,0.4767773411229338,0.8816020726006106,0.4863991610113292,0.3519777086819292,0.01245015137602395,0.8136547109775589,0.1413076179514953,0.04341684229697398,-0.2997921934411667,0.4290734043305269,852.6007326007326,794.981684981685,798.6080586080586,827.2161172161173,757.1062271062272,-0.055481,0.064636,1.001831,-0.321503,-2.048645,-0.022430,354578.754579,93440366.300366,47872967.032967,112.592743,1,1,1,1,1,25.000000
2568-11-19 12:12:34.160,0.4748795347152075,0.541445667989617,0.6024356604650938,0.7702231400927918,0.7328905066101913,0.3149734167842745,0.3096395815990331,0.3678560907080692,0.8164607687340347,0.3036379580270461,0.3559737442913168,0.7415750553541721,0.5581917365515412,0.1655921510748457,0.02829858223687614,0.7420321939773322,0.06447575556951625,0.002210941428488155,-0.2185403460779744,0.2533914184788483,734.5421245421246,805.8608058608058,794.5787545787546,726.0805860805862,695.8608058608058,-0.047913,0.064880,0.998047,-0.157013,-1.906586,0.493469,354578.754579,93470989.010989,47843956.043956,112.592743,1,1,1,1,1,25.000000
2568-11-19 12:12:34.219,,,,,,,,,,,,,,,,,,,,,,,,,,,,,,,,,,,,,,,,,,/muse/elements/blink
2568-11-19 12:12:35.173,0.8139285520997406,0.4443593803762731,0.673869532940215,0.6118071116750224,0.5999540336699113,0.1119889690492694,0.08180384609278622,0.4222828038816255,0.788537484629766,0.1477122359918066,0.2662742445819726,0.6121410542594584,0.6130102773447266,0.1488537192118934,0.04017327222076664,0.7655327192261394,0.1397379497473098,0.001743734942784454,-0.07579541275061234,0.3554446858192122,828.8278388278388,788.1318681318681,780.4761904761905,883.2234432234433,670.0732600732601,-0.065125,0.065369,0.998657,0.074768,-0.927124,-0.306549,354578.754579,93527399.267399,47897948.717949,112.592743,1,1,1,1,1,25.000000
2568-11-19 12:12:36.159,0.8119725950325588,0.5249669894681985,0.9767612355149075,0.6737803653600068,0.4506892728263118,0.278065545107656,0.2975585988875708,0.363408293962911,0.8514715213446277,0.2437162967017377,0.3122142582824735,0.607869454786662,0.6907498232543786,0.2359524254346305,0.03441478440953533,0.7271471432148021,0.07398340629169649,0.01451517444263737,-0.110362653770963,0.3521297513695323,803.040293040293,792.5641025641025,788.9377289377289,915.0549450549451,1250.29304029304,-0.055847,0.069336,1.005981,0.209351,-2.048645,0.426178,355384.615385,93640219.780220,47927765.567766,112.592743,1,1,1,1,1,25.000000
2568-11-19 12:12:37.170,0.8682592187257772,0.6096572916362398,0.9265633675615953,1.128146366347611,0.5663771628843378,0.387987377249827,0.5696416421445263,0.5469073504622856,0.839247255486712,0.3834626404510226,0.5758889771883684,0.884142268868844,0.6609206321527908,0.2641993043339679,0.1778479669542529,0.7064491354316069,0.07790953390357598,0.06217245998399001,-0.1825325674874779,0.4508507367856396,743.8095238095239,789.3406593406594,785.3113553113553,782.0879120879121,726.8864468864469,-0.057678,0.065125,1.007019,0.643005,-1.562653,0.515900,355384.615385,93138168.498168,47827032.967033,112.592743,1,1,1,1,1,25.000000
2568-11-19 12:12:38.167,0.8772646023813477,0.479121221678143,0.6651361161966449,0.7343628594494848,0.4452062058220548,0.210619130638645,0.6064826295400704,0.5625749911306639,0.8424998353490145,0.5157633737954649,0.5118271438350266,0.6974164195898893,0.4486678299586995,0.2195906298698904,0.2321914523018552,0.629232405406554,0.008194081079896904,0.07123908631119202,-0.208092826803136,0.3118743062826693,850.989010989011,800.2197802197802,807.8754578754579,844.9450549450549,610.4395604395604,-0.053528,0.063721,0.998474,-0.209351,-1.757050,-0.388794,354578.754579,92967326.007326,47779487.179487,112.592743,1,1,1,1,1,25.000000
